# Target Z    :  13
# Target A    :  27
# Target state:  
# Projectile  : p
# Reaction    : (p,n')    
# Final state :  
# Quantity    : Cross section
# Frame       : L
# MF          :    3
# MT          :    4
# X4 ID       : P0027002 
# X4 code     : 13-AL-27(P,N)14-SI-27,,SIG
# Author      : Bubb                     
# Year        : 1965
# Data points :    298
#    E(MeV)       xs(mb)      dxs(mb)     dE(MeV)      Evaluation  C/E(F)      Chi-2     Delta(mb)
  5.83000E+00  1.50000E+00  1.80000E-01  0.00000E+00  1.37643E+01   9.176       4642.       12.26              
  5.84000E+00  2.00000E+00  2.40000E-01  0.00000E+00  1.39301E+01   6.965       2471.       11.93              
  5.85000E+00  3.20000E+00  3.84000E-01  0.00000E+00  1.40960E+01   4.405       805.1       10.90              
  5.86000E+00  4.80000E+00  5.76000E-01  0.00000E+00  1.42618E+01   2.971       269.8       9.462              
  5.88000E+00  6.60000E+00  7.92000E-01  0.00000E+00  1.45935E+01   2.211       101.9       7.993              
  5.88000E+00  6.10000E+00  7.32000E-01  0.00000E+00  1.45935E+01   2.392       134.6       8.493              
  5.89000E+00  4.50000E+00  5.40000E-01  0.00000E+00  1.47593E+01   3.280       361.0       10.26              
  5.89000E+00  4.10000E+00  4.92000E-01  0.00000E+00  1.47593E+01   3.600       469.4       10.66              
  5.91000E+00  5.90000E+00  7.08000E-01  0.00000E+00  1.50910E+01   2.558       168.5       9.191              
  5.92000E+00  7.50000E+00  9.00000E-01  0.00000E+00  1.52568E+01   2.034       74.28       7.757              
  5.93000E+00  1.06000E+01  1.27200E+00  0.00000E+00  1.54227E+01   1.455       14.37       4.823              
  5.94000E+00  1.29000E+01  1.54800E+00  0.00000E+00  1.55885E+01   1.208       3.016       2.688              
  5.95000E+00  1.37000E+01  1.64400E+00  0.00000E+00  1.57543E+01   1.150       1.561       2.054              
  5.96000E+00  1.34000E+01  1.60800E+00  0.00000E+00  1.59202E+01   1.188       2.456       2.520              
  5.97000E+00  1.21000E+01  1.45200E+00  0.00000E+00  1.60860E+01   1.329       7.536       3.986              
  5.98000E+00  1.16000E+01  1.39200E+00  0.00000E+00  1.62518E+01   1.401       11.17       4.652              
  5.99000E+00  1.24000E+01  1.48800E+00  0.00000E+00  1.64177E+01   1.324       7.290       4.018              
  6.00000E+00  2.00000E+01  2.40000E+00  0.00000E+00  1.65835E+01  0.8292       2.026       3.417              
  6.02000E+00  2.20000E+01  2.64000E+00  0.00000E+00  1.71632E+01  0.7801       3.357       4.837              
  6.02000E+00  1.79000E+01  2.14800E+00  0.00000E+00  1.71632E+01  0.9588      0.1177      0.7368              
  6.03000E+00  1.62000E+01  1.94400E+00  0.00000E+00  1.74530E+01   1.077      0.4155       1.253              
  6.04000E+00  1.55000E+01  1.86000E+00  0.00000E+00  1.77428E+01   1.145       1.454       2.243              
  6.05000E+00  1.48000E+01  1.77600E+00  0.00000E+00  1.80327E+01   1.218       3.313       3.233              
  6.06000E+00  1.40000E+01  1.68000E+00  0.00000E+00  1.83225E+01   1.309       6.620       4.323              
  6.08000E+00  1.32000E+01  1.58400E+00  0.00000E+00  1.89022E+01   1.432       12.96       5.702              
  6.08000E+00  1.40000E+01  1.68000E+00  0.00000E+00  1.89022E+01   1.350       8.515       4.902              
  6.09000E+00  1.47000E+01  1.76400E+00  0.00000E+00  1.91920E+01   1.306       6.485       4.492              
  6.10000E+00  2.30000E+01  2.76000E+00  0.00000E+00  1.94819E+01  0.8470       1.625       3.518              
  6.11000E+00  1.97000E+01  2.36400E+00  0.00000E+00  1.97717E+01   1.004      9.1988E-04  7.1699E-02          
  6.13000E+00  1.53000E+01  1.83600E+00  0.00000E+00  2.03514E+01   1.330       7.570       5.051              
  6.13000E+00  1.19000E+01  1.42800E+00  0.00000E+00  2.03514E+01   1.710       35.03       8.451              
  6.14000E+00  9.80000E+00  1.17600E+00  0.00000E+00  2.06412E+01   2.106       84.98       10.84              
  6.14000E+00  8.60000E+00  1.03200E+00  0.00000E+00  2.06412E+01   2.400       136.1       12.04              
  6.16000E+00  9.90000E+00  1.18800E+00  0.00000E+00  2.12209E+01   2.144       90.81       11.32              
  6.17000E+00  1.39000E+01  1.66800E+00  0.00000E+00  2.15107E+01   1.548       20.82       7.611              
  6.17000E+00  1.27000E+01  1.52400E+00  0.00000E+00  2.15107E+01   1.694       33.42       8.811              
  6.18000E+00  9.40000E+00  1.12800E+00  0.00000E+00  2.18005E+01   2.319       120.9       12.40              
  6.19000E+00  6.80000E+00  8.16000E-01  0.00000E+00  2.20904E+01   3.249       351.1       15.29              
  6.20000E+00  8.20000E+00  9.84000E-01  0.00000E+00  2.23802E+01   2.729       207.7       14.18              
  6.21000E+00  1.19000E+01  1.42800E+00  0.00000E+00  2.26701E+01   1.905       56.88       10.77              
  6.22000E+00  1.44000E+01  1.72800E+00  0.00000E+00  2.29599E+01   1.594       24.54       8.560              
  6.23000E+00  1.99000E+01  2.38800E+00  0.00000E+00  2.32497E+01   1.168       1.968       3.350              
  6.24000E+00  2.52000E+01  3.02400E+00  0.00000E+00  2.35396E+01  0.9341      0.3015       1.660              
  6.26000E+00  2.67000E+01  3.20400E+00  0.00000E+00  2.41192E+01  0.9033      0.6488       2.581              
  6.26000E+00  2.57000E+01  3.08400E+00  0.00000E+00  2.41192E+01  0.9385      0.2627       1.581              
  6.27000E+00  2.36000E+01  2.83200E+00  0.00000E+00  2.44091E+01   1.034      8.1618E-02  0.8091              
  6.28000E+00  2.12000E+01  2.54400E+00  0.00000E+00  2.46989E+01   1.165       1.892       3.499              
  6.29000E+00  1.80000E+01  2.16000E+00  0.00000E+00  2.49887E+01   1.388       10.47       6.989              
  6.30000E+00  1.42000E+01  1.70400E+00  0.00000E+00  2.52786E+01   1.780       42.27       11.08              
  6.31000E+00  1.54000E+01  1.84800E+00  0.00000E+00  2.55684E+01   1.660       30.28       10.17              
  6.32000E+00  1.83000E+01  2.19600E+00  0.00000E+00  2.58583E+01   1.413       11.85       7.558              
  6.33000E+00  1.80000E+01  2.16000E+00  0.00000E+00  2.61481E+01   1.453       14.23       8.148              
  6.34000E+00  1.22000E+01  1.46400E+00  0.00000E+00  2.64379E+01   2.167       94.58       14.24              
  6.35000E+00  1.11000E+01  1.33200E+00  0.00000E+00  2.67278E+01   2.408       137.7       15.63              
  6.36000E+00  1.18000E+01  1.41600E+00  0.00000E+00  2.70176E+01   2.290       115.5       15.22              
  6.41000E+00  1.17000E+01  1.40400E+00  0.00000E+00  2.84668E+01   2.433       142.6       16.77              
  6.43000E+00  1.23000E+01  1.47600E+00  0.00000E+00  2.90464E+01   2.361       128.7       16.75              
  6.44000E+00  1.22000E+01  1.46400E+00  0.00000E+00  2.93363E+01   2.405       137.0       17.14              
  6.45000E+00  1.28000E+01  1.53600E+00  0.00000E+00  2.96261E+01   2.315       120.0       16.83              
  6.46000E+00  1.42000E+01  1.70400E+00  0.00000E+00  2.99160E+01   2.107       85.06       15.72              
  6.47000E+00  1.66000E+01  1.99200E+00  0.00000E+00  3.02058E+01   1.820       46.65       13.61              
  6.48000E+00  1.84000E+01  2.20800E+00  0.00000E+00  3.04956E+01   1.657       30.01       12.10              
  6.49000E+00  2.34000E+01  2.80800E+00  0.00000E+00  3.07855E+01   1.316       6.918       7.385              
  6.50000E+00  2.17000E+01  2.60400E+00  0.00000E+00  3.10753E+01   1.432       12.96       9.375              
  6.51000E+00  2.12000E+01  2.54400E+00  0.00000E+00  3.13651E+01   1.479       15.97       10.17              
  6.52000E+00  2.33000E+01  2.79600E+00  0.00000E+00  3.16550E+01   1.359       8.929       8.355              
  6.53000E+00  2.68000E+01  3.21600E+00  0.00000E+00  3.19448E+01   1.192       2.559       5.145              
  6.54000E+00  3.16000E+01  3.79200E+00  0.00000E+00  3.22346E+01   1.020      2.8011E-02  0.6346              
  6.56000E+00  3.55000E+01  4.26000E+00  0.00000E+00  3.28143E+01  0.9243      0.3975       2.686              
  6.56000E+00  3.69000E+01  4.42800E+00  0.00000E+00  3.28143E+01  0.8893      0.8514       4.086              
  6.57000E+00  3.75000E+01  4.50000E+00  0.00000E+00  3.31042E+01  0.8828      0.9542       4.396              
  6.58000E+00  3.65000E+01  4.38000E+00  0.00000E+00  3.33940E+01  0.9149      0.5029       3.106              
  6.60000E+00  3.45000E+01  4.14000E+00  0.00000E+00  3.39737E+01  0.9847      1.6164E-02  0.5263              
  6.61000E+00  2.99000E+01  3.58800E+00  0.00000E+00  3.42635E+01   1.146       1.479       4.364              
  6.61000E+00  2.50000E+01  3.00000E+00  0.00000E+00  3.42635E+01   1.371       9.535       9.264              
  6.62000E+00  2.28000E+01  2.73600E+00  0.00000E+00  3.45533E+01   1.515       18.45       11.75              
  6.64000E+00  2.25000E+01  2.70000E+00  0.00000E+00  3.51330E+01   1.561       21.89       12.63              
  6.65000E+00  2.44000E+01  2.92800E+00  0.00000E+00  3.54228E+01   1.452       14.17       11.02              
  6.66000E+00  2.50000E+01  3.00000E+00  0.00000E+00  3.57127E+01   1.429       12.75       10.71              
  6.67000E+00  2.58000E+01  3.09600E+00  0.00000E+00  3.60025E+01   1.395       10.86       10.20              
  6.69000E+00  2.36000E+01  2.83200E+00  0.00000E+00  3.65822E+01   1.550       21.01       12.98              
  6.69000E+00  2.18000E+01  2.61600E+00  0.00000E+00  3.65822E+01   1.678       31.93       14.78              
  6.70000E+00  1.95000E+01  2.34000E+00  0.00000E+00  3.68720E+01   1.891       55.11       17.37              
  6.71000E+00  1.82000E+01  2.18400E+00  0.00000E+00  3.71619E+01   2.042       75.38       18.96              
  6.73000E+00  1.82000E+01  2.18400E+00  0.00000E+00  3.77415E+01   2.074       80.06       19.54              
  6.74000E+00  1.86000E+01  2.23200E+00  0.00000E+00  3.80314E+01   2.045       75.79       19.43              
  6.75000E+00  1.87000E+01  2.24400E+00  0.00000E+00  3.83212E+01   2.049       76.45       19.62              
  6.76000E+00  1.91000E+01  2.29200E+00  0.00000E+00  3.86110E+01   2.022       72.47       19.51              
  6.78000E+00  1.94000E+01  2.32800E+00  0.00000E+00  3.91907E+01   2.020       72.27       19.79              
  6.80000E+00  2.01000E+01  2.41200E+00  0.00000E+00  3.97704E+01   1.979       66.51       19.67              
  6.80000E+00  2.35000E+01  2.82000E+00  0.00000E+00  3.97704E+01   1.692       33.29       16.27              
  6.82000E+00  2.43000E+01  2.91600E+00  0.00000E+00  4.03501E+01   1.660       30.30       16.05              
  6.83000E+00  2.58000E+01  3.09600E+00  0.00000E+00  4.06399E+01   1.575       22.98       14.84              
  6.84000E+00  2.71000E+01  3.25200E+00  0.00000E+00  4.09297E+01   1.510       18.09       13.83              
  6.84000E+00  3.10000E+01  3.72000E+00  0.00000E+00  4.09297E+01   1.320       7.125       9.930              
  6.86000E+00  3.32000E+01  3.98400E+00  0.00000E+00  4.15094E+01   1.250       4.350       8.309              
  6.88000E+00  3.29000E+01  3.94800E+00  0.00000E+00  4.20891E+01   1.279       5.417       9.189              
  6.89000E+00  3.45000E+01  4.14000E+00  0.00000E+00  4.23789E+01   1.228       3.622       7.879              
  6.90000E+00  3.47000E+01  4.16400E+00  0.00000E+00  4.26687E+01   1.230       3.662       7.969              
  6.91000E+00  3.64000E+01  4.36800E+00  0.00000E+00  4.29586E+01   1.180       2.255       6.559              
  6.92000E+00  3.45000E+01  4.14000E+00  0.00000E+00  4.32484E+01   1.254       4.465       8.748              
  6.93000E+00  3.05000E+01  3.66000E+00  0.00000E+00  4.35382E+01   1.427       12.69       13.04              
  6.93000E+00  3.02000E+01  3.62400E+00  0.00000E+00  4.35382E+01   1.442       13.55       13.34              
  6.95000E+00  3.31000E+01  3.97200E+00  0.00000E+00  4.41179E+01   1.333       7.694       11.02              
  6.96000E+00  2.97000E+01  3.56400E+00  0.00000E+00  4.44078E+01   1.495       17.03       14.71              
  6.97000E+00  2.39000E+01  2.86800E+00  0.00000E+00  4.46976E+01   1.870       52.59       20.80              
  6.97000E+00  2.10000E+01  2.52000E+00  0.00000E+00  4.46976E+01   2.128       88.43       23.70              
  6.98000E+00  1.97000E+01  2.36400E+00  0.00000E+00  4.49874E+01   2.284       114.4       25.29              
  7.00000E+00  1.92000E+01  2.30400E+00  0.00000E+00  4.55671E+01   2.373       131.0       26.37              
  7.00000E+00  2.01000E+01  2.41200E+00  0.00000E+00  4.55671E+01   2.267       111.5       25.47              
  7.01000E+00  1.67000E+01  2.00400E+00  0.00000E+00  4.55967E+01   2.730       207.9       28.90              
  7.01000E+00  2.17000E+01  2.60400E+00  0.00000E+00  4.55967E+01   2.101       84.22       23.90              
  7.02000E+00  1.55000E+01  1.86000E+00  0.00000E+00  4.56263E+01   2.944       262.3       30.13              
  7.03000E+00  2.25000E+01  2.70000E+00  0.00000E+00  4.56559E+01   2.029       73.55       23.16              
  7.03000E+00  2.69000E+01  3.22800E+00  0.00000E+00  4.56559E+01   1.697       33.76       18.76              
  7.05000E+00  1.29000E+01  1.54800E+00  0.00000E+00  4.57150E+01   3.544       449.4       32.82              
  7.05000E+00  1.16000E+01  1.39200E+00  0.00000E+00  4.57150E+01   3.941       600.6       34.12              
  7.05000E+00  2.91000E+01  3.49200E+00  0.00000E+00  4.57150E+01   1.571       22.64       16.62              
  7.06000E+00  3.46000E+01  4.15200E+00  0.00000E+00  4.57446E+01   1.322       7.205       11.14              
  7.07000E+00  1.19000E+01  1.42800E+00  0.00000E+00  4.57742E+01   3.847       562.7       33.87              
  7.07000E+00  3.78000E+01  4.53600E+00  0.00000E+00  4.57742E+01   1.211       3.091       7.974              
  7.08000E+00  2.04000E+01  2.44800E+00  0.00000E+00  4.58038E+01   2.245       107.7       25.40              
  7.08000E+00  3.53000E+01  4.23600E+00  0.00000E+00  4.58038E+01   1.298       6.149       10.50              
  7.09000E+00  1.90000E+01  2.28000E+00  0.00000E+00  4.58334E+01   2.412       138.5       26.83              
  7.09000E+00  3.38000E+01  4.05600E+00  0.00000E+00  4.58334E+01   1.356       8.802       12.03              
  7.09000E+00  3.23000E+01  3.87600E+00  0.00000E+00  4.58334E+01   1.419       12.19       13.53              
  7.11000E+00  1.01000E+01  1.21200E+00  0.00000E+00  4.58926E+01   4.544       872.1       35.79              
  7.11000E+00  3.17000E+01  3.80400E+00  0.00000E+00  4.58926E+01   1.448       13.92       14.19              
  7.12000E+00  3.11000E+01  3.73200E+00  0.00000E+00  4.59222E+01   1.477       15.77       14.82              
  7.13000E+00  9.00000E+00  1.08000E+00  0.00000E+00  4.59518E+01   5.106       1171.       36.95              
  7.13000E+00  3.13000E+01  3.75600E+00  0.00000E+00  4.59518E+01   1.468       15.22       14.65              
  7.14000E+00  1.10000E+01  1.32000E+00  0.00000E+00  4.59813E+01   4.180       702.3       34.98              
  7.14000E+00  3.27000E+01  3.92400E+00  0.00000E+00  4.59813E+01   1.406       11.46       13.28              
  7.15000E+00  1.26000E+01  1.51200E+00  0.00000E+00  4.60109E+01   3.652       488.3       33.41              
  7.15000E+00  3.42000E+01  4.10400E+00  0.00000E+00  4.60109E+01   1.345       8.282       11.81              
  7.16000E+00  3.36000E+01  4.03200E+00  0.00000E+00  4.60405E+01   1.370       9.520       12.44              
  7.17000E+00  9.40000E+00  1.12800E+00  0.00000E+00  4.60701E+01   4.901       1057.       36.67              
  7.17000E+00  3.20000E+01  3.84000E+00  0.00000E+00  4.60701E+01   1.440       13.43       14.07              
  7.18000E+00  2.92000E+01  3.50400E+00  0.00000E+00  4.60997E+01   1.579       23.26       16.90              
  7.19000E+00  1.37000E+01  1.64400E+00  0.00000E+00  4.61293E+01   3.367       389.1       32.43              
  7.19000E+00  2.89000E+01  3.46800E+00  0.00000E+00  4.61293E+01   1.596       24.68       17.23              
  7.20000E+00  2.85000E+01  3.42000E+00  0.00000E+00  4.61589E+01   1.620       26.66       17.66              
  7.21000E+00  1.45000E+01  1.74000E+00  0.00000E+00  4.61885E+01   3.185       331.7       31.69              
  7.21000E+00  2.73000E+01  3.27600E+00  0.00000E+00  4.61885E+01   1.692       33.24       18.89              
  7.22000E+00  2.20000E+01  2.64000E+00  0.00000E+00  4.62181E+01   2.101       84.15       24.22              
  7.22000E+00  2.71000E+01  3.25200E+00  0.00000E+00  4.62181E+01   1.705       34.56       19.12              
  7.23000E+00  2.77000E+01  3.32400E+00  0.00000E+00  4.62476E+01   1.670       31.14       18.55              
  7.23000E+00  2.76000E+01  3.31200E+00  0.00000E+00  4.62476E+01   1.676       31.70       18.65              
  7.24000E+00  2.81000E+01  3.37200E+00  0.00000E+00  4.62772E+01   1.647       29.06       18.18              
  7.24000E+00  2.71000E+01  3.25200E+00  0.00000E+00  4.62772E+01   1.708       34.78       19.18              
  7.24000E+00  2.52000E+01  3.02400E+00  0.00000E+00  4.62772E+01   1.836       48.58       21.08              
  7.26000E+00  2.09000E+01  2.50800E+00  0.00000E+00  4.63364E+01   2.217       102.9       25.44              
  7.26000E+00  2.63000E+01  3.15600E+00  0.00000E+00  4.63364E+01   1.762       40.31       20.04              
  7.27000E+00  1.58000E+01  1.89600E+00  0.00000E+00  4.63660E+01   2.935       259.9       30.57              
  7.27000E+00  2.85000E+01  3.42000E+00  0.00000E+00  4.63660E+01   1.627       27.29       17.87              
  7.27000E+00  3.04000E+01  3.64800E+00  0.00000E+00  4.63660E+01   1.525       19.16       15.97              
  7.28000E+00  1.40000E+01  1.68000E+00  0.00000E+00  4.63956E+01   3.314       371.8       32.40              
  7.29000E+00  2.92000E+01  3.50400E+00  0.00000E+00  4.64252E+01   1.590       24.17       17.23              
  7.30000E+00  1.60000E+01  1.92000E+00  0.00000E+00  4.64548E+01   2.903       251.6       30.45              
  7.30000E+00  2.85000E+01  3.42000E+00  0.00000E+00  4.64548E+01   1.630       27.56       17.95              
  7.31000E+00  2.13000E+01  2.55600E+00  0.00000E+00  4.64844E+01   2.182       97.08       25.18              
  7.32000E+00  2.96000E+01  3.55200E+00  0.00000E+00  4.65140E+01   1.571       22.67       16.91              
  7.33000E+00  2.27000E+01  2.72400E+00  0.00000E+00  4.65435E+01   2.050       76.62       23.84              
  7.33000E+00  3.07000E+01  3.68400E+00  0.00000E+00  4.65435E+01   1.516       18.50       15.84              
  7.34000E+00  2.80000E+01  3.36000E+00  0.00000E+00  4.65731E+01   1.663       30.56       18.57              
  7.34000E+00  3.25000E+01  3.90000E+00  0.00000E+00  4.65731E+01   1.433       13.02       14.07              
  7.35000E+00  3.22000E+01  3.86400E+00  0.00000E+00  4.66027E+01   1.447       13.89       14.40              
  7.36000E+00  3.02000E+01  3.62400E+00  0.00000E+00  4.66323E+01   1.544       20.56       16.43              
  7.37000E+00  2.53000E+01  3.03600E+00  0.00000E+00  4.66619E+01   1.844       49.51       21.36              
  7.38000E+00  1.75000E+01  2.10000E+00  0.00000E+00  4.66915E+01   2.668       193.2       29.19              
  7.39000E+00  1.56000E+01  1.87200E+00  0.00000E+00  4.67211E+01   2.995       276.4       31.12              
  7.39000E+00  2.92000E+01  3.50400E+00  0.00000E+00  4.67211E+01   1.600       25.00       17.52              
  7.39000E+00  2.97000E+01  3.56400E+00  0.00000E+00  4.67211E+01   1.573       22.81       17.02              
  7.40000E+00  2.90000E+01  3.48000E+00  0.00000E+00  4.67507E+01   1.612       26.02       17.75              
  7.41000E+00  1.82000E+01  2.18400E+00  0.00000E+00  4.67803E+01   2.570       171.2       28.58              
  7.41000E+00  2.87000E+01  3.44400E+00  0.00000E+00  4.67803E+01   1.630       27.56       18.08              
  7.42000E+00  2.96000E+01  3.55200E+00  0.00000E+00  4.68098E+01   1.581       23.48       17.21              
  7.43000E+00  1.93000E+01  2.31600E+00  0.00000E+00  4.68394E+01   2.427       141.4       27.54              
  7.43000E+00  2.35000E+01  2.82000E+00  0.00000E+00  4.68394E+01   1.993       68.50       23.34              
  7.43000E+00  2.76000E+01  3.31200E+00  0.00000E+00  4.68394E+01   1.697       33.74       19.24              
  7.44000E+00  2.59000E+01  3.10800E+00  0.00000E+00  4.68690E+01   1.810       45.52       20.97              
  7.45000E+00  2.67000E+01  3.20400E+00  0.00000E+00  4.68986E+01   1.757       39.74       20.20              
  7.46000E+00  2.64000E+01  3.16800E+00  0.00000E+00  4.69282E+01   1.778       41.99       20.53              
  7.46000E+00  3.13000E+01  3.75600E+00  0.00000E+00  4.69282E+01   1.499       17.31       15.63              
  7.47000E+00  2.39000E+01  2.86800E+00  0.00000E+00  4.69578E+01   1.965       64.64       23.06              
  7.47000E+00  3.38000E+01  4.05600E+00  0.00000E+00  4.69578E+01   1.389       10.52       13.16              
  7.48000E+00  3.45000E+01  4.14000E+00  0.00000E+00  4.69874E+01   1.362       9.098       12.49              
  7.49000E+00  3.00000E+01  3.60000E+00  0.00000E+00  4.70170E+01   1.567       22.34       17.02              
  7.49000E+00  3.56000E+01  4.27200E+00  0.00000E+00  4.70170E+01   1.321       7.142       11.42              
  7.50000E+00  3.30000E+01  3.96000E+00  0.00000E+00  4.70466E+01   1.426       12.58       14.05              
  7.50000E+00  3.56000E+01  4.27200E+00  0.00000E+00  4.70466E+01   1.322       7.179       11.45              
  7.51000E+00  3.50000E+01  4.20000E+00  0.00000E+00  4.70761E+01   1.345       8.267       12.08              
  7.52000E+00  3.62000E+01  4.34400E+00  0.00000E+00  4.71057E+01   1.301       6.303       10.91              
  7.52000E+00  3.38000E+01  4.05600E+00  0.00000E+00  4.71057E+01   1.394       10.76       13.31              
  7.53000E+00  3.63000E+01  4.35600E+00  0.00000E+00  4.71353E+01   1.298       6.187       10.84              
  7.53000E+00  3.27000E+01  3.92400E+00  0.00000E+00  4.71353E+01   1.441       13.53       14.44              
  7.55000E+00  2.52000E+01  3.02400E+00  0.00000E+00  4.71945E+01   1.873       52.90       21.99              
  7.55000E+00  3.24000E+01  3.88800E+00  0.00000E+00  4.71945E+01   1.457       14.48       14.79              
  7.55000E+00  3.27000E+01  3.92400E+00  0.00000E+00  4.71945E+01   1.443       13.64       14.49              
  7.56000E+00  3.57000E+01  4.28400E+00  0.00000E+00  4.72241E+01   1.323       7.236       11.52              
  7.57000E+00  2.04000E+01  2.44800E+00  0.00000E+00  4.72537E+01   2.316       120.3       26.85              
  7.57000E+00  2.25000E+01  2.70000E+00  0.00000E+00  4.72537E+01   2.100       84.05       24.75              
  7.58000E+00  3.83000E+01  4.59600E+00  0.00000E+00  4.72833E+01   1.235       3.820       8.983              
  7.59000E+00  2.40000E+01  2.88000E+00  0.00000E+00  4.73129E+01   1.971       65.52       23.31              
  7.59000E+00  4.08000E+01  4.89600E+00  0.00000E+00  4.73129E+01   1.160       1.770       6.513              
  7.60000E+00  1.39000E+01  1.66800E+00  0.00000E+00  4.73424E+01   3.406       402.0       33.44              
  7.60000E+00  4.05000E+01  4.86000E+00  0.00000E+00  4.73424E+01   1.169       1.982       6.842              
  7.61000E+00  9.30000E+00  1.11600E+00  0.00000E+00  4.73720E+01   5.094       1164.       38.07              
  7.61000E+00  3.94000E+01  4.72800E+00  0.00000E+00  4.73720E+01   1.202       2.843       7.972              
  7.63000E+00  3.98000E+01  4.77600E+00  0.00000E+00  4.74312E+01   1.192       2.553       7.631              
  7.63000E+00  3.91000E+01  4.69200E+00  0.00000E+00  4.74312E+01   1.213       3.153       8.331              
  7.64000E+00  3.91000E+01  4.69200E+00  0.00000E+00  4.74608E+01   1.214       3.175       8.361              
  7.65000E+00  4.02000E+01  4.82400E+00  0.00000E+00  4.74904E+01   1.181       2.284       7.290              
  7.66000E+00  4.15000E+01  4.98000E+00  0.00000E+00  4.75200E+01   1.145       1.461       6.020              
  7.67000E+00  4.11000E+01  4.93200E+00  0.00000E+00  4.75496E+01   1.157       1.710       6.450              
  7.68000E+00  4.01000E+01  4.81200E+00  0.00000E+00  4.75792E+01   1.187       2.416       7.479              
  7.70000E+00  4.04000E+01  4.84800E+00  0.00000E+00  4.76383E+01   1.179       2.229       7.238              
  7.70000E+00  4.24000E+01  5.08800E+00  0.00000E+00  4.76383E+01   1.124       1.060       5.238              
  7.71000E+00  4.41000E+01  5.29200E+00  0.00000E+00  4.76679E+01   1.081      0.4546       3.568              
  7.72000E+00  4.49000E+01  5.38800E+00  0.00000E+00  4.76975E+01   1.062      0.2696       2.798              
  7.73000E+00  4.33000E+01  5.19600E+00  0.00000E+00  4.77271E+01   1.102      0.7259       4.427              
  7.74000E+00  4.21000E+01  5.05200E+00  0.00000E+00  4.77567E+01   1.134       1.254       5.657              
  7.76000E+00  4.10000E+01  4.92000E+00  0.00000E+00  4.78159E+01   1.166       1.919       6.816              
  7.76000E+00  4.01000E+01  4.81200E+00  0.00000E+00  4.78159E+01   1.192       2.571       7.716              
  7.77000E+00  3.88000E+01  4.65600E+00  0.00000E+00  4.78455E+01   1.233       3.774       9.045              
  7.78000E+00  3.79000E+01  4.54800E+00  0.00000E+00  4.78750E+01   1.263       4.810       9.975              
  7.79000E+00  3.72000E+01  4.46400E+00  0.00000E+00  4.79046E+01   1.288       5.750       10.70              
  7.80000E+00  3.58000E+01  4.29600E+00  0.00000E+00  4.79342E+01   1.339       7.978       12.13              
  7.81000E+00  3.52000E+01  4.22400E+00  0.00000E+00  4.79638E+01   1.363       9.131       12.76              
  7.83000E+00  3.55000E+01  4.26000E+00  0.00000E+00  4.80230E+01   1.353       8.642       12.52              
  7.83000E+00  3.67000E+01  4.40400E+00  0.00000E+00  4.80230E+01   1.309       6.610       11.32              
  7.85000E+00  3.67000E+01  4.40400E+00  0.00000E+00  4.80822E+01   1.310       6.680       11.38              
  7.86000E+00  3.56000E+01  4.27200E+00  0.00000E+00  4.81118E+01   1.351       8.578       12.51              
  7.86000E+00  3.71000E+01  4.45200E+00  0.00000E+00  4.81118E+01   1.297       6.118       11.01              
  7.88000E+00  3.95000E+01  4.74000E+00  0.00000E+00  4.81709E+01   1.220       3.346       8.671              
  7.89000E+00  4.40000E+01  5.28000E+00  0.00000E+00  4.82005E+01   1.095      0.6329       4.201              
  7.90000E+00  4.62000E+01  5.54400E+00  0.00000E+00  4.82301E+01   1.044      0.1341       2.030              
  7.91000E+00  4.42000E+01  5.30400E+00  0.00000E+00  4.82597E+01   1.092      0.5858       4.060              
  7.92000E+00  4.32000E+01  5.18400E+00  0.00000E+00  4.82893E+01   1.118      0.9638       5.089              
  7.93000E+00  4.28000E+01  5.13600E+00  0.00000E+00  4.83189E+01   1.129       1.155       5.519              
  7.94000E+00  4.34000E+01  5.20800E+00  0.00000E+00  4.83485E+01   1.114      0.9028       4.948              
  7.95000E+00  4.29000E+01  5.14800E+00  0.00000E+00  4.83781E+01   1.128       1.132       5.478              
  7.96000E+00  4.33000E+01  5.19600E+00  0.00000E+00  4.84076E+01   1.118      0.9663       5.108              
  7.97000E+00  4.39000E+01  5.26800E+00  0.00000E+00  4.84372E+01   1.103      0.7418       4.537              
  7.97000E+00  4.48000E+01  5.37600E+00  0.00000E+00  4.84372E+01   1.081      0.4577       3.637              
  7.98000E+00  4.58000E+01  5.49600E+00  0.00000E+00  4.84668E+01   1.058      0.2354       2.667              
  7.99000E+00  4.71000E+01  5.65200E+00  0.00000E+00  4.84964E+01   1.030      6.1041E-02   1.396              
  8.01000E+00  4.68000E+01  5.61600E+00  0.00000E+00  4.87419E+01   1.041      0.1196       1.942              
  8.02000E+00  5.12000E+01  6.14400E+00  0.00000E+00  4.89577E+01  0.9562      0.1332       2.242              
  8.02000E+00  4.42000E+01  5.30400E+00  0.00000E+00  4.89577E+01   1.108      0.8046       4.758              
  8.03000E+00  5.03000E+01  6.03600E+00  0.00000E+00  4.91735E+01  0.9776      3.4829E-02   1.126              
  8.04000E+00  4.86000E+01  5.83200E+00  0.00000E+00  4.93894E+01   1.016      1.8321E-02  0.7894              
  8.05000E+00  4.79000E+01  5.74800E+00  0.00000E+00  4.96052E+01   1.036      8.8010E-02   1.705              
  8.06000E+00  4.95000E+01  5.94000E+00  0.00000E+00  4.98211E+01   1.006      2.9218E-03  0.3211              
  8.07000E+00  5.16000E+01  6.19200E+00  0.00000E+00  5.00369E+01  0.9697      6.3725E-02   1.563              
  8.08000E+00  5.16000E+01  6.19200E+00  0.00000E+00  5.02528E+01  0.9739      4.7340E-02   1.347              
  8.09000E+00  5.16000E+01  6.19200E+00  0.00000E+00  5.04686E+01  0.9781      3.3386E-02   1.131              
  8.11000E+00  5.14000E+01  6.16800E+00  0.00000E+00  5.09003E+01  0.9903      6.5637E-03  0.4997              
  8.12000E+00  4.76000E+01  5.71200E+00  0.00000E+00  5.11161E+01   1.074      0.3789       3.516              
  8.13000E+00  4.51000E+01  5.41200E+00  0.00000E+00  5.13320E+01   1.138       1.326       6.232              
  8.13000E+00  4.34000E+01  5.20800E+00  0.00000E+00  5.13320E+01   1.183       2.320       7.932              
  8.15000E+00  4.34000E+01  5.20800E+00  0.00000E+00  5.17637E+01   1.193       2.579       8.364              
  8.16000E+00  4.39000E+01  5.26800E+00  0.00000E+00  5.19795E+01   1.184       2.352       8.080              
  8.17000E+00  4.66000E+01  5.59200E+00  0.00000E+00  5.21954E+01   1.120       1.001       5.595              
  8.18000E+00  4.64000E+01  5.56800E+00  0.00000E+00  5.24112E+01   1.130       1.166       6.011              
  8.18000E+00  4.57000E+01  5.48400E+00  0.00000E+00  5.24112E+01   1.147       1.498       6.711              
  8.20000E+00  4.27000E+01  5.12400E+00  0.00000E+00  5.28429E+01   1.238       3.918       10.14              
  8.21000E+00  4.27000E+01  5.12400E+00  0.00000E+00  5.30587E+01   1.243       4.087       10.36              
  8.22000E+00  4.28000E+01  5.13600E+00  0.00000E+00  5.32746E+01   1.245       4.159       10.47              
  8.22000E+00  4.33000E+01  5.19600E+00  0.00000E+00  5.32746E+01   1.230       3.685       9.975              
  8.24000E+00  4.43000E+01  5.31600E+00  0.00000E+00  5.37063E+01   1.212       3.131       9.406              
  8.25000E+00  4.69000E+01  5.62800E+00  0.00000E+00  5.39221E+01   1.150       1.557       7.022              
  8.26000E+00  4.78000E+01  5.73600E+00  0.00000E+00  5.41380E+01   1.133       1.221       6.338              
  8.26000E+00  4.60000E+01  5.52000E+00  0.00000E+00  5.41380E+01   1.177       2.173       8.138              
  8.27000E+00  4.35000E+01  5.22000E+00  0.00000E+00  5.43538E+01   1.250       4.323       10.85              
  8.29000E+00  4.31000E+01  5.17200E+00  0.00000E+00  5.47855E+01   1.271       5.105       11.69              
  8.30000E+00  4.26000E+01  5.11200E+00  0.00000E+00  5.50014E+01   1.291       5.885       12.40              
  8.32000E+00  4.36000E+01  5.23200E+00  0.00000E+00  5.54330E+01   1.271       5.115       11.83              
  8.32000E+00  4.43000E+01  5.31600E+00  0.00000E+00  5.54330E+01   1.251       4.386       11.13              
  8.33000E+00  4.26000E+01  5.11200E+00  0.00000E+00  5.56489E+01   1.306       6.516       13.05              
  8.34000E+00  4.21000E+01  5.05200E+00  0.00000E+00  5.58647E+01   1.327       7.423       13.76              
  8.35000E+00  4.26000E+01  5.11200E+00  0.00000E+00  5.60806E+01   1.316       6.954       13.48              
  8.36000E+00  4.26000E+01  5.11200E+00  0.00000E+00  5.62964E+01   1.322       7.178       13.70              
  8.37000E+00  4.24000E+01  5.08800E+00  0.00000E+00  5.65123E+01   1.333       7.693       14.11              
  8.39000E+00  4.51000E+01  5.41200E+00  0.00000E+00  5.69440E+01   1.263       4.789       11.84              
  8.40000E+00  4.27000E+01  5.12400E+00  0.00000E+00  5.71598E+01   1.339       7.964       14.46              
  8.41000E+00  4.03000E+01  4.83600E+00  0.00000E+00  5.73756E+01   1.424       12.47       17.08              
  8.42000E+00  4.06000E+01  4.87200E+00  0.00000E+00  5.75915E+01   1.419       12.16       16.99              
  8.43000E+00  4.48000E+01  5.37600E+00  0.00000E+00  5.78073E+01   1.290       5.854       13.01              
  8.44000E+00  4.87000E+01  5.84400E+00  0.00000E+00  5.80232E+01   1.191       2.545       9.323              
  8.45000E+00  4.83000E+01  5.79600E+00  0.00000E+00  5.82390E+01   1.206       2.941       9.939              
  8.46000E+00  4.81000E+01  5.77200E+00  0.00000E+00  5.84549E+01   1.215       3.218       10.35              
  8.47000E+00  4.94000E+01  5.92800E+00  0.00000E+00  5.86707E+01   1.188       2.446       9.271              
  8.48000E+00  5.01000E+01  6.01200E+00  0.00000E+00  5.88866E+01   1.175       2.136       8.787              
  8.49000E+00  4.83000E+01  5.79600E+00  0.00000E+00  5.91024E+01   1.224       3.474       10.80              
  8.50000E+00  4.90000E+01  5.88000E+00  0.00000E+00  5.93182E+01   1.211       3.079       10.32              
  8.51000E+00  5.18000E+01  6.21600E+00  0.00000E+00  5.95341E+01   1.149       1.548       7.734              
  8.52000E+00  4.96000E+01  5.95200E+00  0.00000E+00  5.97499E+01   1.205       2.908       10.15              
#
# Average deviation:                                                1.778       88.77       12.73    
#
# Full reference:
#I.F.Bubb, J.M.Poate, R.H.Spear
#Jour. Nuclear Physics Vol.65, p.655, 1965
#Excitation function of the reaction Al27(p,n)Si27
#
# Quality information:
#
# Quality  P0027002 : T2
# Date     P0027002 : 05-01-2018
# Reaction P0027002 : NP:  298 E-range:   5.83    -   8.52     MeV 13-AL-27(P,N)14-SI-27,,SIG          pdf: y
# Paper    P0027002 : I.F.Bubb+ Jour. Nuclear Physics Vol.65, p.655, 1965 Excitation function of the reaction Al27(p,n)Si27
# Action   P0027002 : 
# Comment  P0027002 : Evaluation        N=   298 F=   1.78     chi-2=   88.8     D=   12.7     mb T=   41.3     mb E=   28.9     K1=  1.78     K2=  12.9
# Comment  P0027002 : TALYS             N=   298 F=   1.78     chi-2=   88.8     D=   12.7     mb T=   41.3     mb E=   28.9     K1=  1.78     K2=  12.9
# Comment  P0027002 : cendl3.1          N=     0 F=   0.00     chi-2=   0.00     D=   0.00     mb T=   0.00     mb E=   28.9     K1=  0.00     K2=  0.00
# Comment  P0027002 : eaf.2010          N=     0 F=   0.00     chi-2=   0.00     D=   0.00     mb T=   0.00     mb E=   28.9     K1=  0.00     K2=  0.00
# Comment  P0027002 : endfb8.0          N=     0 F=   0.00     chi-2=   0.00     D=   0.00     mb T=   0.00     mb E=   28.9     K1=  0.00     K2=  0.00
# Comment  P0027002 : irdff1.0          N=     0 F=   0.00     chi-2=   0.00     D=   0.00     mb T=   0.00     mb E=   28.9     K1=  0.00     K2=  0.00
# Comment  P0027002 : jeff3.3           N=     0 F=   0.00     chi-2=   0.00     D=   0.00     mb T=   0.00     mb E=   28.9     K1=  0.00     K2=  0.00
# Comment  P0027002 : jendl4.0          N=     0 F=   0.00     chi-2=   0.00     D=   0.00     mb T=   0.00     mb E=   28.9     K1=  0.00     K2=  0.00
# Comment  P0027002 : tendl.2017        N=     0 F=   0.00     chi-2=   0.00     D=   0.00     mb T=   0.00     mb E=   28.9     K1=  0.00     K2=  0.00
