# Target Z    :  74
# Target A    : 180
# Target state:  
# Projectile  : p
# Reaction    : Exchange  scattering
# E-inc       :   21.000 MeV
# E-exc       :  0.00000 MeV (EXFOR:  0.00000)
# Quantity    : Angular distribution
# Frame       : C
# MF          :    4
# MT          :  740
# X4 ID       : T0164002 
# X4 code     : 74-W-180(P,T)74-W-178,PAR,DA
# Author      : Mortenson                
# Year        : 1980
# Data points :     62
#  Angle(deg)    xs(mb/sr) dxs(mb/sr) dAngle(deg)
  4.50024E+00  3.09000E-01  0.00000E+00
  1.30000E+01  4.70000E-02  2.35000E-02
  1.98000E+01  5.23000E-01  0.00000E+00
  2.65000E+01  7.41000E-01  0.00000E+00
  4.31000E+01  6.15000E-02  0.00000E+00
  5.07001E+01  3.14000E-01  0.00000E+00
  5.77001E+01  3.19000E-01  0.00000E+00
  6.43001E+01  1.02400E-01  0.00000E+00
  7.29001E+01  6.15000E-02  0.00000E+00
  7.92001E+01  1.17300E-01  0.00000E+00
  5.89990E+00  2.94000E-01  0.00000E+00
  1.37000E+01  1.76000E-01  0.00000E+00
  2.03000E+01  1.01600E-01  0.00000E+00
  2.81000E+01  7.43000E-02  0.00000E+00
  3.51001E+01  4.37000E-02  0.00000E+00
  4.29001E+01  2.89000E-02  0.00000E+00
  4.96001E+01  1.95000E-02  5.85000E-04
  5.66000E+01  1.60000E-02  0.00000E+00
  6.44001E+01  1.50000E-02  7.50000E-04
  7.22001E+01  1.32000E-02  0.00000E+00
  7.93001E+01  1.10000E-02  0.00000E+00
  5.50011E+00  1.46000E-02  4.23400E-04
  1.19000E+01  1.89000E-02  5.48100E-04
  2.00001E+01  1.80000E-02  5.22000E-04
  2.79001E+01  2.10000E-02  6.09000E-04
  3.45000E+01  1.03100E-02  2.98990E-04
  4.23001E+01  7.54000E-03  2.18660E-04
  4.93001E+01  4.30000E-03  6.88000E-04
  5.68001E+01  5.60000E-03  8.96000E-04
  6.31001E+01  4.80000E-03  7.20000E-04
  7.12001E+01  2.00000E-03  6.00000E-04
  7.91001E+01  4.00000E-03  9.20000E-04
  4.00003E+00  3.00000E-02  0.00000E+00
  1.16999E+01  1.14000E-02  6.84000E-04
  1.97001E+01  5.53000E-02  0.00000E+00
  2.59000E+01  6.30000E-02  0.00000E+00
  3.52001E+01  9.80000E-03  0.00000E+00
  4.31000E+01  6.77000E-03  3.38500E-04
  4.92001E+01  3.18000E-02  1.59000E-03
  5.79001E+01  2.91000E-02  1.74600E-03
  6.43001E+01  8.90000E-03  5.34000E-04
  7.35001E+01  7.90000E-03  7.11000E-04
  4.20039E+00  1.59000E-02  9.54000E-04
  9.99991E+00  3.90000E-03  8.97000E-04
  1.91000E+01  1.55000E-02  7.75000E-04
  2.54000E+01  2.20000E-02  1.32000E-03
  3.48000E+01  4.78000E-03  2.39000E-04
  4.09000E+01  3.29000E-03  2.30300E-04
  5.07001E+01  1.46000E-02  8.76000E-04
  5.62001E+01  1.30000E-02  9.10000E-04
  6.36001E+01  1.70000E-03  4.08000E-04
  7.04001E+01  1.80000E-03  3.06000E-04
  2.10059E+00  9.00000E-03  5.40000E-04
  1.08001E+01  1.50000E-03  6.00000E-04
  1.74001E+01  6.60000E-03  5.28000E-04
  2.48001E+01  5.20000E-03  7.80000E-04
  3.39000E+01  3.00000E-03  3.90000E-04
  3.92000E+01  1.30000E-03  2.99000E-04
  4.78000E+01  7.40000E-03  6.66000E-04
  5.52001E+01  6.20000E-03  4.96000E-04
  6.31001E+01  4.17000E-03  2.50200E-04
  7.05001E+01  3.50000E-03  3.85000E-04
# Full reference:
#M.H.Mortenson, R.R.Betts, C.K.Bockelman
#Jour. Physical Review, Part C, Nuclear Physics Vol.21, p.2275, 1980
#W(p,t) reactions. I. Even targets.
