# Target Z    :  13
# Target A    :  27
# Target state:  
# Projectile  : p
# Reaction    : (p,xa)
# E-inc       :  392.000 MeV
# Quantity    : Double-differential cross section
# Frame       : L
# MF          :    6
# MT          :  207
# X4 ID       : E2007055 
# X4 code     : 13-AL-27(P,X)2-HE-4,,DA/DE
# Author      : Uozumi                   
# Year        : 2007
# Data points :     31
# E-out(MeV) xs(mb/MeV.sr) dxs(mb/MeV.sr) dE(MeV)      Evaluation  C/E(F)      Chi-2     Delta(mb)
  1.30000E+01  3.38100E-07  1.96600E-09  0.00000E+00  6.00001E+01
  1.50000E+01  3.06300E-07  1.87100E-09  0.00000E+00  6.00001E+01
  1.70000E+01  2.48100E-07  1.68400E-09  0.00000E+00  6.00001E+01
  1.90000E+01  1.99900E-07  1.51200E-09  0.00000E+00  6.00001E+01
  2.10000E+01  1.65300E-07  1.37500E-09  0.00000E+00  6.00001E+01
  2.30000E+01  1.35400E-07  1.24400E-09  0.00000E+00  6.00001E+01
  2.50000E+01  1.11500E-07  1.12900E-09  0.00000E+00  6.00001E+01
  2.70000E+01  9.36600E-08  1.03500E-09  0.00000E+00  6.00001E+01
  2.90000E+01  8.20600E-08  9.68800E-10  0.00000E+00  6.00001E+01
  3.10000E+01  6.67200E-08  8.73500E-10  0.00000E+00  6.00001E+01
  3.30000E+01  6.06400E-08  8.32800E-10  0.00000E+00  6.00001E+01
  3.50000E+01  5.36600E-08  7.83400E-10  0.00000E+00  6.00001E+01
  3.70000E+01  4.65500E-08  7.29600E-10  0.00000E+00  6.00001E+01
  3.90000E+01  4.15200E-08  6.89100E-10  0.00000E+00  6.00001E+01
  4.10000E+01  3.62200E-08  6.43700E-10  0.00000E+00  6.00001E+01
  4.30000E+01  3.14000E-08  5.99300E-10  0.00000E+00  6.00001E+01
  4.50000E+01  2.86900E-08  5.72800E-10  0.00000E+00  6.00001E+01
  4.70000E+01  2.62500E-08  5.48000E-10  0.00000E+00  6.00001E+01
  4.90000E+01  2.42200E-08  5.26300E-10  0.00000E+00  6.00001E+01
  5.10000E+01  2.06400E-08  4.85900E-10  0.00000E+00  6.00001E+01
  5.30000E+01  1.90100E-08  4.66300E-10  0.00000E+00  6.00001E+01
  5.50000E+01  1.63200E-08  4.32100E-10  0.00000E+00  6.00001E+01
  5.70000E+01  1.48500E-08  4.12200E-10  0.00000E+00  6.00001E+01
  5.90000E+01  1.26200E-08  3.79900E-10  0.00000E+00  6.00001E+01
  6.10000E+01  1.12100E-08  3.58100E-10  0.00000E+00  6.00001E+01
  6.30000E+01  1.06900E-08  3.49600E-10  0.00000E+00  6.00001E+01
  6.50000E+01  1.00800E-08  3.39500E-10  0.00000E+00  6.00001E+01
  6.70000E+01  9.78600E-09  3.34500E-10  0.00000E+00  6.00001E+01
  6.90000E+01  9.24100E-09  3.25100E-10  0.00000E+00  6.00001E+01
  7.10000E+01  8.56700E-09  3.13000E-10  0.00000E+00  6.00001E+01
  7.30000E+01  7.81700E-09  2.99000E-10  0.00000E+00  6.00001E+01
# Full reference:
#Y.Uozumi,  P.Evtoukhovitch,  H.Fukuda,  M.Imamura, H.Iwamoto,  V.Kalinikov,  W.Kallies,  N.Khumutov,  T.Kin,
#N.Koba,  Y.Koba,  N.Kuchinski,  A.Moisenko,  D.Mzavia, M.Nakano,  V.Samoilov,  Z.Tsamalaidze,  G.Wakabayashi,
#Y.Yamashita
#Jour. Nucl. Instrum. Methods in Physics Res., Sect.A Vol.571, Issue.3, p.743, 2007
#Magnitude factor systematics of Kalbach phenomenology for reactions emitting helium and lithium ions
