# Target Z    :  29
# Target A    :   0
# Target state:  
# Projectile  : p
# Reaction    : (p,x)
# Final Z     :  27
# Final A     :  56
# Final state : *
# Quantity    : Cross section
# Frame       : L
# MF          :    3
# MT          :  998
# X4 ID       : O0276130 
# X4 code     : 29-CU-0(P,X)27-CO-56,,SIG
# Author      : Michel                   
# Year        : 1997
# Data points :    139
#    E(MeV)       xs(mb)      dxs(mb)     dE(MeV)      Evaluation  C/E(F)      Chi-2     Delta(mb)
  3.94000E+01  3.06000E-02  4.26000E-03  9.06000E-01
  4.06000E+01  2.20000E-02  7.53000E-03  6.41000E-01  1.91564E-03  8.7074E-02   7.114      2.0084E-02          
  4.24000E+01  2.02000E-02  3.95000E-03  6.09000E-01  7.66257E-03  0.3793       10.07      1.2537E-02          
  4.24000E+01  3.85000E-02  6.78000E-03  6.06000E-01  7.66257E-03  0.1990       20.69      3.0837E-02          
  4.36000E+01  2.70000E-02  5.21000E-03  8.83000E-01  1.14938E-02  0.4257       8.858      1.5506E-02          
  4.37000E+01  2.49000E-02  4.46000E-03  8.87000E-01  1.18131E-02  0.4744       8.610      1.3087E-02          
  4.42000E+01  4.18000E-02  4.32000E-03  5.76000E-01  1.34095E-02  0.3208       43.19      2.8391E-02          
  4.42000E+01  3.99000E-02  7.50000E-03  5.74000E-01  1.34095E-02  0.3361       12.48      2.6491E-02          
  4.42000E+01  4.81000E-02  4.18000E-03  5.74000E-01  1.34095E-02  0.2788       68.88      3.4691E-02          
  4.42000E+01  3.93000E-02  4.40000E-03  5.72000E-01  1.34095E-02  0.3412       34.62      2.5891E-02          
  4.42000E+01  3.27000E-02  3.26000E-03  8.94000E-01  1.34095E-02  0.4101       35.01      1.9291E-02          
  4.45000E+01  3.54000E-02  2.97000E-03  5.62000E-01  1.43673E-02  0.4059       50.15      2.1033E-02          
  4.46000E+01  4.09000E-02  3.38000E-03  5.63000E-01  1.46866E-02  0.3591       60.15      2.6213E-02          
  4.46000E+01  4.69000E-02  5.70000E-03  5.65000E-01  1.46866E-02  0.3131       31.94      3.2213E-02          
  4.52000E+01  5.14000E-02  6.26000E-03  8.53000E-01  1.95905E-02  0.3811       25.82      3.1809E-02          
  4.54000E+01  5.41000E-02  7.62000E-03  8.70000E-01  2.32174E-02  0.4292       16.43      3.0883E-02          
  4.55000E+01  5.11000E-02  6.11000E-03  8.61000E-01  2.50308E-02  0.4898       18.20      2.6069E-02          
  4.57000E+01  5.64000E-02  5.70000E-03  8.44000E-01  2.86576E-02  0.5081       23.69      2.7742E-02          
  4.59000E+01  4.15000E-02  5.02000E-03  8.52000E-01  3.22845E-02  0.7779       3.370      9.2155E-03          
  4.61000E+01  4.94000E-02  7.07000E-03  1.23000E+00  3.59112E-02  0.7269       3.640      1.3489E-02          
  4.67000E+01  8.67000E-02  6.54000E-03  8.69000E-01  4.67918E-02  0.5397       37.24      3.9908E-02          
  4.71000E+01  8.56000E-02  7.19000E-03  8.56000E-01  5.40454E-02  0.6314       19.26      3.1555E-02          
  4.73000E+01  9.09000E-02  6.14000E-03  8.50000E-01  5.76723E-02  0.6345       29.29      3.3228E-02          
  4.74000E+01  1.09000E-01  7.27000E-03  8.32000E-01  5.94857E-02  0.5457       46.39      4.9514E-02          
  4.87000E+01  1.40000E-01  9.96000E-03  8.21000E-01  8.30601E-02  0.5933       32.68      5.6940E-02          
  4.88000E+01  1.41000E-01  1.05000E-02  8.37000E-01  8.48735E-02  0.6019       28.57      5.6126E-02          
  4.90000E+01  1.53000E-01  9.04000E-03  8.46000E-01  8.85004E-02  0.5784       50.91      6.4500E-02          
  4.92000E+01  1.46000E-01  9.95000E-03  8.28000E-01  9.21272E-02  0.6310       29.32      5.3873E-02          
  4.93000E+01  1.30000E-01  8.16000E-03  8.23000E-01  9.39406E-02  0.7226       19.53      3.6059E-02          
  4.99000E+01  1.31000E-01  1.97000E-02  1.20000E+00  1.04821E-01  0.8002       1.766      2.6179E-02          
  5.04000E+01  2.19000E-01  1.40000E-02  8.18000E-01  1.77963E-01  0.8126       8.592      4.1037E-02          
  5.09000E+01  2.45000E-01  1.40000E-02  8.18000E-01  2.67123E-01   1.090       2.497      2.2123E-02          
  5.10000E+01  4.45000E-01  7.37000E-02  1.82000E+00  2.84954E-01  0.6403       4.716      0.1600              
  5.12000E+01  2.24000E-01  1.82000E-02  1.19000E+00  3.20619E-01   1.431       28.18      9.6619E-02          
  5.12000E+01  3.01000E-01  1.61000E-02  8.23000E-01  3.20619E-01   1.065       1.485      1.9619E-02          
  5.13000E+01  2.28000E-01  1.72000E-02  1.18000E+00  3.38450E-01   1.484       41.24      0.1105              
  5.20000E+01  3.72000E-01  2.06000E-02  8.01000E-01  4.63274E-01   1.245       19.63      9.1274E-02          
  5.22000E+01  4.15000E-01  2.26000E-02  7.88000E-01  4.98938E-01   1.202       13.79      8.3938E-02          
  5.24000E+01  3.06000E-01  2.49000E-02  1.18000E+00  5.34602E-01   1.747       84.29      0.2286              
  5.25000E+01  3.51000E-01  1.91000E-02  7.92000E-01  5.52434E-01   1.574       111.2      0.2014              
  5.26000E+01  4.46000E-01  2.43000E-02  7.97000E-01  5.70266E-01   1.279       26.15      0.1243              
  5.34000E+01  4.68000E-01  3.68000E-02  1.18000E+00  7.12922E-01   1.523       44.30      0.2449              
  5.34000E+01  6.63000E-01  3.42000E-02  8.01000E-01  7.12922E-01   1.075       2.131      4.9922E-02          
  5.35000E+01  6.54000E-01  3.54000E-02  7.89000E-01  7.30754E-01   1.117       4.701      7.6754E-02          
  5.38000E+01  6.24000E-01  6.13000E-02  1.17000E+00  7.84250E-01   1.257       6.834      0.1602              
  5.43000E+01  8.34000E-01  4.36000E-02  7.78000E-01  8.73410E-01   1.047      0.8170      3.9410E-02          
  5.45000E+01  6.60000E-01  4.99000E-02  1.17000E+00  9.09074E-01   1.377       24.91      0.2491              
  5.50000E+01  1.16000E+00  6.16000E-02  7.78000E-01  9.98234E-01  0.8605       6.896      0.1618              
  5.53000E+01  1.35000E+00  6.97000E-02  7.60000E-01  1.15305E+00  0.8541       7.985      0.1970              
  5.55000E+01  1.43000E+00  7.39000E-02  7.81000E-01  1.25626E+00  0.8785       5.527      0.1737              
  5.57000E+01  1.09000E+00  8.80000E-02  1.15000E+00  1.35947E+00   1.247       9.377      0.2695              
  5.60000E+01  1.33000E+00  6.82000E-02  7.58000E-01  1.51428E+00   1.139       7.301      0.1843              
  5.64000E+01  1.79000E+00  9.26000E-02  7.56000E-01  1.72071E+00  0.9613      0.5600      6.9294E-02          
  5.65000E+01  1.87000E+00  9.76000E-02  7.64000E-01  1.77231E+00  0.9478       1.002      9.7690E-02          
  5.70000E+01  2.59000E+00  1.36000E-01  7.41000E-01  2.03034E+00  0.7839       16.93      0.5597              
  5.71000E+01  1.64000E+00  1.23000E-01  1.15000E+00  2.08194E+00   1.269       12.91      0.4419              
  5.73000E+01  2.38000E+00  1.25000E-01  7.37000E-01  2.18515E+00  0.9181       2.430      0.1948              
  5.74000E+01  2.02000E+00  1.48000E-01  1.15000E+00  2.23676E+00   1.107       2.145      0.2168              
  5.75000E+01  2.72000E+00  1.41000E-01  7.56000E-01  2.28836E+00  0.8413       9.371      0.4316              
  5.76000E+01  3.48000E+00  3.52000E-01  1.40000E+00  2.33997E+00  0.6724       10.49       1.140              
  5.78000E+01  2.31000E+00  1.75000E-01  1.14000E+00  2.44318E+00   1.058      0.5791      0.1332              
  5.80000E+01  2.88000E+00  1.50000E-01  7.41000E-01  2.54639E+00  0.8842       4.947      0.3336              
  5.84000E+01  3.73000E+00  1.97000E-01  7.27000E-01  2.75281E+00  0.7380       24.61      0.9772              
  5.87000E+01  3.99000E+00  2.10000E-01  7.23000E-01  2.90762E+00  0.7287       26.57       1.082              
  5.88000E+01  3.73000E+00  1.91000E-01  7.24000E-01  2.95923E+00  0.7934       16.28      0.7708              
  5.95000E+01  4.38000E+00  2.25000E-01  7.27000E-01  3.32046E+00  0.7581       22.18       1.060              
  5.95000E+01  4.26000E+00  2.21000E-01  7.23000E-01  3.32046E+00  0.7795       18.07      0.9395              
  5.98000E+01  4.03000E+00  3.00000E-01  1.13000E+00  3.47528E+00  0.8624       3.419      0.5547              
  5.98000E+01  3.71000E+00  2.80000E-01  1.13000E+00  3.47528E+00  0.9367      0.7027      0.2347              
  6.06000E+01  4.89000E+00  2.50000E-01  7.09000E-01  3.81501E+00  0.7802       18.49       1.075              
  6.06000E+01  3.98000E+00  3.13000E-01  1.12000E+00  3.81501E+00  0.9585      0.2779      0.1650              
  6.09000E+01  5.04000E+00  3.13000E-01  6.99000E-01  3.93327E+00  0.7804       12.50       1.107              
  6.09000E+01  5.70000E+00  2.91000E-01  7.12000E-01  3.93327E+00  0.6900       36.86       1.767              
  6.17000E+01  6.73000E+00  3.47000E-01  7.09000E-01  4.24863E+00  0.6313       51.14       2.481              
  6.17000E+01  5.69000E+00  4.43000E-01  1.11000E+00  4.24863E+00  0.7467       10.59       1.441              
  6.22000E+01  6.16000E+00  4.50000E-01  1.11000E+00  4.44573E+00  0.7217       14.51       1.714              
  6.23000E+01  7.57000E+00  3.98000E-01  6.86000E-01  4.48515E+00  0.5925       60.08       3.085              
  6.23000E+01  7.24000E+00  3.70000E-01  6.92000E-01  4.48515E+00  0.6195       55.44       2.755              
  6.24000E+01  5.86000E+00  4.21000E-01  1.11000E+00  4.52457E+00  0.7721       10.06       1.335              
  6.26000E+01  7.41000E+00  3.83000E-01  6.92000E-01  4.60341E+00  0.6212       53.70       2.807              
  6.31000E+01  8.31000E+00  4.24000E-01  6.73000E-01  4.80051E+00  0.5777       68.51       3.509              
  6.33000E+01  8.00000E+00  4.07000E-01  6.73000E-01  4.87935E+00  0.6099       58.79       3.121              
  6.36000E+01  8.83000E+00  4.55000E-01  6.84000E-01  4.99761E+00  0.5660       70.94       3.832              
  6.36000E+01  8.62000E+00  4.39000E-01  6.81000E-01  4.99761E+00  0.5798       68.09       3.622              
  6.37000E+01  7.96000E+00  5.71000E-01  1.10000E+00  5.03703E+00  0.6328       26.20       2.923              
  6.38000E+01  7.91000E+00  5.62000E-01  1.10000E+00  5.07645E+00  0.6418       25.42       2.834              
  6.40000E+01  9.07000E+00  4.69000E-01  6.73000E-01  5.15529E+00  0.5684       69.67       3.915              
  6.42000E+01  7.71000E+00  5.50000E-01  1.09000E+00  5.23413E+00  0.6789       20.26       2.476              
  6.49000E+01  1.00000E+01  5.12000E-01  6.63000E-01  5.51007E+00  0.5510       76.90       4.490              
  6.52000E+01  9.18000E+00  6.51000E-01  1.09000E+00  5.57842E+00  0.6077       30.61       3.602              
  6.55000E+01  1.03000E+01  5.37000E-01  6.48000E-01  5.62181E+00  0.5458       75.89       4.678              
  6.55000E+01  1.06000E+01  5.49000E-01  6.59000E-01  5.62181E+00  0.5304       82.22       4.978              
  6.56000E+01  9.38000E+00  6.80000E-01  1.08000E+00  5.63627E+00  0.6009       30.31       3.744              
  6.58000E+01  1.09000E+01  5.57000E-01  6.40000E-01  5.66520E+00  0.5197       88.33       5.235              
  6.60000E+01  1.07000E+01  5.48000E-01  6.41000E-01  5.69413E+00  0.5322       83.44       5.006              
  6.60000E+01  9.58000E+00  6.87000E-01  1.08000E+00  5.69413E+00  0.5944       31.99       3.886              
  6.62000E+01  1.11000E+01  5.65000E-01  6.41000E-01  5.72305E+00  0.5156       90.57       5.377              
  6.69000E+01  1.15000E+01  5.97000E-01  6.32000E-01  5.82430E+00  0.5065       90.38       5.676              
  6.74000E+01  1.21000E+01  6.25000E-01  6.29000E-01  5.89662E+00  0.4873       98.51       6.203              
  6.74000E+01  1.07000E+01  8.00000E-01  1.07000E+00  5.89662E+00  0.5511       36.05       4.803              
  6.75000E+01  1.21000E+01  6.18000E-01  6.22000E-01  5.91108E+00  0.4885       100.3       6.189              
  6.77000E+01  1.11000E+01  7.92000E-01  1.07000E+00  5.94001E+00  0.5351       42.45       5.160              
  6.82000E+01  1.10000E+01  8.04000E-01  1.06000E+00  6.01233E+00  0.5466       38.48       4.988              
  6.83000E+01  1.26000E+01  6.50000E-01  6.10000E-01  6.02679E+00  0.4783       102.3       6.573              
  6.85000E+01  1.26000E+01  6.41000E-01  6.01000E-01  6.05572E+00  0.4806       104.2       6.544              
  6.85000E+01  1.27000E+01  6.48000E-01  6.02000E-01  6.05572E+00  0.4768       105.1       6.644              
  6.88000E+01  1.28000E+01  6.53000E-01  6.04000E-01  6.09911E+00  0.4765       105.3       6.701              
  6.92000E+01  1.33000E+01  6.87000E-01  5.97000E-01  6.15696E+00  0.4629       108.1       7.143              
  6.94000E+01  1.16000E+01  8.00000E-01  1.05000E+00  6.18589E+00  0.5333       45.80       5.414              
  6.96000E+01  1.32000E+01  6.85000E-01  5.88000E-01  6.21482E+00  0.4708       104.0       6.985              
  7.00000E+01  1.33000E+01  6.76000E-01  5.82000E-01  6.27267E+00  0.4716       108.1       7.027              
  7.14000E+01  1.38000E+01  7.01000E-01  5.47000E-01  6.37315E+00  0.4618       112.2       7.427              
  7.14000E+01  1.35000E+01  7.01000E-01  5.50000E-01  6.37315E+00  0.4721       103.4       7.127              
  7.14000E+01  1.36000E+01  7.16000E-01  5.49000E-01  6.37315E+00  0.4686       101.9       7.227              
  7.14000E+01  1.40000E+01  7.20000E-01  5.50000E-01  6.37315E+00  0.4552       112.2       7.627              
  7.14000E+01  1.27000E+01  9.00000E-01  1.03000E+00  6.37315E+00  0.5018       49.42       6.327              
  7.14000E+01  1.25000E+01  8.90000E-01  1.03000E+00  6.37315E+00  0.5099       47.39       6.127              
  7.14000E+01  1.24000E+01  9.26000E-01  1.02000E+00  6.37315E+00  0.5140       42.36       6.027              
  7.14000E+01  1.24000E+01  9.22000E-01  1.03000E+00  6.37315E+00  0.5140       42.73       6.027              
  7.15000E+01  1.37000E+01  7.19000E-01  5.48000E-01  6.38033E+00  0.4657       103.6       7.320              
  7.15000E+01  1.38000E+01  7.03000E-01  5.47000E-01  6.38033E+00  0.4623       111.4       7.420              
  7.40000E+01  1.34000E+01  1.35000E+00  1.04000E+00  6.55975E+00  0.4895       25.67       6.840              
  8.53000E+01  1.17000E+01  1.22000E+00  1.08000E+00  6.84010E+00  0.5846       15.87       4.860              
  8.81000E+01  1.35000E+01  1.04000E+00  7.91000E-01  6.94389E+00  0.5144       39.74       6.556              
  1.01000E+02  1.05000E+01  9.17000E-01  1.69000E+00  9.36142E+00  0.8916       1.542       1.139              
  1.11000E+02  1.15000E+01  8.00000E-01  1.40000E+00  1.15995E+01   1.009      1.5462E-02  9.9477E-02          
  1.11000E+02  1.16000E+01  1.00000E+00  1.61000E+00  1.15995E+01   1.000      2.7312E-07  5.2261E-04          
  1.21000E+02  1.27000E+01  9.00000E-01  1.30000E+00  1.27448E+01   1.004      2.4763E-03  4.4786E-02          
  1.21000E+02  1.22000E+01  1.06000E+00  1.53000E+00  1.27448E+01   1.045      0.2641      0.5448              
  1.31000E+02  1.30000E+01  9.00000E-01  1.30000E+00  1.29032E+01  0.9926      1.1575E-02  9.6828E-02          
  1.31000E+02  1.24000E+01  1.07000E+00  1.43000E+00  1.29032E+01   1.041      0.2211      0.5032              
  1.40000E+02  1.36000E+01  1.00000E+00  1.20000E+00  1.26865E+01  0.9328      0.8345      0.9135              
  1.40000E+02  1.24000E+01  1.09000E+00  1.34000E+00  1.26865E+01   1.023      6.9072E-02  0.2865              
  1.48000E+02  1.33000E+01  9.00000E-01  1.10000E+00  1.23790E+01  0.9307       1.047      0.9210              
  1.49000E+02  1.24000E+01  1.09000E+00  1.25000E+00  1.23405E+01  0.9952      2.9769E-03  5.9471E-02          
  1.58000E+02  1.27000E+01  9.00000E-01  1.10000E+00  1.19104E+01  0.9378      0.7698      0.7896              
  1.58000E+02  1.24000E+01  1.09000E+00  1.14000E+00  1.19104E+01  0.9605      0.2018      0.4896              
  1.20000E+03  8.15000E+00  9.33000E-02  9.86000E-01
  1.59000E+03  6.92000E+00  7.90000E-02  1.00000E+00
#
# Average deviation:                                                1.810       35.57       2.051    
#
# Full reference:
#R.Michel,  R.Bodemann,  H.Busemann,  R.Daunke,  M.Gloris, H.-J.Lange,  B.Klug,  A.Krins,  I.Leya,
# M.Luepke, S.Neumann,  H.Reinhardt,  M.Schnatz-Buettgen, U.Herpers,  Th.Schiekel,  F.Sudbrock,  B.Holmqvist, H.Conde,
# P.Malmborg,  M.Suter,  B.Dittrich-Hannen, P.-W.Kubik,  H.-A.Sinal,  D.Filges
#Jour. Nucl. Instrum. Methods in Physics Res., Sect.B Vol.129, p.153, 1997
#Cross sections for the production of residual nuclides by low- and medium-energy protons from the target elements C, N, O, Mg, Al, Si, Ca, Ti, V, Mn, Fe, Co,
#Ni, Cu, Sr, Y, Zr, Nb, Ba and Au.
#
# Quality information:
#
# Quality  O0276130 : T1
# Date     O0276130 : 05-01-2018
# Reaction O0276130 : NP:  139 E-range:   39.4    -  1.590E+03 MeV 29-CU-0(P,X)27-CO-56,,SIG           pdf: y
# Paper    O0276130 : R.Michel+ Jour. Nucl. Instrum. Methods in Physics Res., Sect.B Vol.129, p.153, 1997 Cross sections for the production of residual nuclides b
# Action   O0276130 : 
# Comment  O0276130 : Evaluation        N=   136 F=   1.81     chi-2=   35.6     D=   2.05     mb T=   3.85     mb E=   5.82     K1=  1.81     K2=  12.9
# Comment  O0276130 : TALYS             N=   136 F=   1.81     chi-2=   35.6     D=   2.05     mb T=   3.85     mb E=   5.82     K1=  1.81     K2=  12.9
# Comment  O0276130 : cendl3.1          N=     0 F=   0.00     chi-2=   0.00     D=   0.00     mb T=   0.00     mb E=   5.82     K1=  0.00     K2=  0.00
# Comment  O0276130 : eaf.2010          N=     0 F=   0.00     chi-2=   0.00     D=   0.00     mb T=   0.00     mb E=   5.82     K1=  0.00     K2=  0.00
# Comment  O0276130 : endfb8.0          N=     0 F=   0.00     chi-2=   0.00     D=   0.00     mb T=   0.00     mb E=   5.82     K1=  0.00     K2=  0.00
# Comment  O0276130 : irdff1.0          N=     0 F=   0.00     chi-2=   0.00     D=   0.00     mb T=   0.00     mb E=   5.82     K1=  0.00     K2=  0.00
# Comment  O0276130 : jeff3.3           N=     0 F=   0.00     chi-2=   0.00     D=   0.00     mb T=   0.00     mb E=   5.82     K1=  0.00     K2=  0.00
# Comment  O0276130 : jendl4.0          N=     0 F=   0.00     chi-2=   0.00     D=   0.00     mb T=   0.00     mb E=   5.82     K1=  0.00     K2=  0.00
# Comment  O0276130 : tendl.2017        N=     0 F=   0.00     chi-2=   0.00     D=   0.00     mb T=   0.00     mb E=   5.82     K1=  0.00     K2=  0.00
