# Target Z    :  29
# Target A    :   0
# Target state:  
# Projectile  : p
# Reaction    : (p,x)
# Final Z     :  27
# Final A     :  57
# Final state : *
# Quantity    : Cross section
# Frame       : L
# MF          :    3
# MT          :  998
# X4 ID       : O0276131 
# X4 code     : 29-CU-0(P,X)27-CO-57,,SIG
# Author      : Michel                   
# Year        : 1997
# Data points :    210
#    E(MeV)       xs(mb)      dxs(mb)     dE(MeV)      Evaluation  C/E(F)      Chi-2     Delta(mb)
  2.25000E+01  3.37000E-02  1.37000E-02  3.43000E+00
  2.73000E+01  5.90000E-03  3.61000E-04  7.93000E-01  2.37392E-03  0.4024       95.40      3.5261E-03          
  2.74000E+01  7.28000E-03  1.38000E-03  1.21000E+00  2.55653E-03  0.3512       11.72      4.7235E-03          
  2.78000E+01  1.39000E-02  2.96000E-03  8.03000E-01  3.28696E-03  0.2365       12.86      1.0613E-02          
  2.79000E+01  1.17000E-02  1.57000E-03  8.00000E-01  3.46957E-03  0.2965       27.48      8.2304E-03          
  2.81000E+01  1.06000E-02  1.42000E-03  7.93000E-01  4.30370E-03  0.4060       19.66      6.2963E-03          
  2.86000E+01  1.51000E-02  2.20000E-03  7.86000E-01  7.56130E-03  0.5007       11.74      7.5387E-03          
  3.01000E+01  3.01000E-02  1.90000E-03  7.63000E-01  1.89674E-02  0.6301       34.33      1.1133E-02          
  3.01000E+01  3.33000E-02  2.30000E-03  7.80000E-01  1.89674E-02  0.5696       38.83      1.4333E-02          
  3.02000E+01  4.03000E-02  4.95000E-03  7.74000E-01  2.12522E-02  0.5273       14.81      1.9048E-02          
  3.03000E+01  2.63000E-02  2.12000E-03  1.09000E+00  2.35370E-02  0.8949       1.699      2.7630E-03          
  3.04000E+01  3.91000E-02  5.77000E-03  7.61000E-01  2.58218E-02  0.6604       5.296      1.3278E-02          
  3.19000E+01  1.08000E-01  8.93000E-03  1.31000E+00  6.00939E-02  0.5564       28.78      4.7906E-02          
  3.22000E+01  8.02000E-02  4.32000E-03  7.58000E-01  6.69483E-02  0.8348       9.410      1.3252E-02          
  3.22000E+01  8.19000E-02  5.08000E-03  7.40000E-01  6.69483E-02  0.8174       8.663      1.4952E-02          
  3.25000E+01  8.93000E-02  6.35000E-03  7.45000E-01  7.38027E-02  0.8265       5.956      1.5497E-02          
  3.27000E+01  8.99000E-02  5.30000E-03  7.36000E-01  7.83724E-02  0.8718       4.731      1.1528E-02          
  3.28000E+01  8.66000E-02  5.87000E-03  7.28000E-01  8.06571E-02  0.9314       1.025      5.9429E-03          
  3.30000E+01  9.14000E-02  1.19000E-02  7.42000E-01  8.52268E-02  0.9325      0.2691      6.1732E-03          
  3.31000E+01  7.48000E-02  5.58000E-03  1.06000E+00  8.75115E-02   1.170       5.190      1.2712E-02          
  3.34000E+01  9.87000E-02  5.86000E-03  7.29000E-01  9.43660E-02  0.9561      0.5470      4.3340E-03          
  3.39000E+01  1.18000E-01  7.67000E-03  7.23000E-01  1.05790E-01  0.8965       2.534      1.2210E-02          
  3.46000E+01  1.84000E-01  1.22000E-02  9.39000E-01  1.21784E-01  0.6619       26.01      6.2216E-02          
  3.47000E+01  1.90000E-01  1.48000E-02  7.15000E-01  1.24068E-01  0.6530       19.85      6.5932E-02          
  3.48000E+01  1.98000E-01  1.17000E-02  7.19000E-01  1.26353E-01  0.6381       37.50      7.1647E-02          
  3.50000E+01  2.51000E-01  1.83000E-02  1.30000E+00  1.30923E-01  0.5216       43.05      0.1201              
  3.52000E+01  2.23000E-01  1.20000E-02  7.10000E-01  2.69735E-01   1.210       15.17      4.6735E-02          
  3.59000E+01  2.75000E-01  2.25000E-02  7.05000E-01  7.55577E-01   2.748       456.2      0.4806              
  3.62000E+01  3.82000E-01  2.03000E-02  6.94000E-01  9.63794E-01   2.523       821.4      0.5818              
  3.64000E+01  3.04000E-01  2.36000E-02  9.88000E-01  1.10261E+00   3.627       1145.      0.7986              
  3.66000E+01  4.44000E-01  3.18000E-02  6.96000E-01  1.24142E+00   2.796       628.8      0.7974              
  3.67000E+01  6.35000E-01  3.28000E-02  6.89000E-01  1.31082E+00   2.064       424.5      0.6758              
  3.67000E+01  6.93000E-01  3.53000E-02  7.01000E-01  1.31082E+00   1.892       306.3      0.6178              
  3.68000E+01  1.10000E+00  1.13000E-01  2.13000E+00  1.38023E+00   1.255       6.150      0.2802              
  3.69000E+01  6.37000E-01  3.45000E-02  6.85000E-01  1.44964E+00   2.276       554.8      0.8126              
  3.74000E+01  9.61000E-01  5.06000E-02  6.76000E-01  1.79667E+00   1.870       272.7      0.8357              
  3.74000E+01  5.09000E-01  2.99000E-02  9.34000E-01  1.79667E+00   3.530       1855.       1.288              
  3.75000E+01  4.57000E-01  3.53000E-02  1.27000E+00  1.86607E+00   4.083       1593.       1.409              
  3.78000E+01  1.15000E+00  5.91000E-02  6.75000E-01  2.07429E+00   1.804       244.6      0.9243              
  3.85000E+01  2.08000E+00  1.06000E-01  6.60000E-01  2.56013E+00   1.231       20.52      0.4801              
  3.85000E+01  2.21000E+00  1.15000E-01  6.69000E-01  2.56013E+00   1.158       9.270      0.3501              
  3.86000E+01  2.14000E+00  1.14000E-01  6.65000E-01  2.62953E+00   1.229       18.44      0.4895              
  3.86000E+01  1.68000E+00  1.20000E-01  6.67000E-01  2.62953E+00   1.565       62.61      0.9495              
  3.89000E+01  1.70000E+00  1.19000E-01  9.10000E-01  2.83775E+00   1.669       91.41       1.138              
  3.92000E+01  2.44000E+00  1.73000E-01  6.54000E-01  3.04597E+00   1.248       12.27      0.6060              
  3.93000E+01  3.12000E+00  1.63000E-01  6.53000E-01  3.11538E+00  0.9985      8.0471E-04  4.6239E-03          
  3.94000E+01  2.20000E+00  1.15000E-01  9.06000E-01  3.18478E+00   1.448       73.33      0.9848              
  3.95000E+01  1.34000E+00  9.48000E-02  1.26000E+00  3.25419E+00   2.428       407.7       1.914              
  3.96000E+01  2.74000E+00  1.43000E-01  9.33000E-01  3.32359E+00   1.213       16.66      0.5836              
  4.02000E+01  5.48000E+00  2.88000E-01  6.43000E-01  4.12884E+00  0.7534       22.01       1.351              
  4.03000E+01  5.91000E+00  3.02000E-01  6.47000E-01  4.39264E+00  0.7433       25.24       1.517              
  4.04000E+01  5.07000E+00  3.65000E-01  6.45000E-01  4.65646E+00  0.9184       1.284      0.4135              
  4.05000E+01  2.83000E+00  2.02000E-01  1.25000E+00  4.92026E+00   1.739       107.1       2.090              
  4.06000E+01  6.62000E+00  3.41000E-01  6.41000E-01  5.18406E+00  0.7831       17.73       1.436              
  4.07000E+01  6.68000E+00  3.45000E-01  6.34000E-01  5.44788E+00  0.8156       12.75       1.232              
  4.11000E+01  6.60000E+00  4.68000E-01  6.31000E-01  6.50311E+00  0.9853      4.2864E-02  9.6893E-02          
  4.12000E+01  6.20000E+00  4.35000E-01  8.54000E-01  6.76692E+00   1.091       1.699      0.5669              
  4.16000E+01  6.47000E+00  3.36000E-01  9.00000E-01  7.82215E+00   1.209       16.19       1.352              
  4.17000E+01  1.02000E+01  5.44000E-01  6.21000E-01  8.08596E+00  0.7927       15.10       2.114              
  4.19000E+01  6.08000E+00  4.31000E-01  1.25000E+00  8.61358E+00   1.417       34.56       2.534              
  4.20000E+01  1.14000E+01  5.88000E-01  6.18000E-01  8.87739E+00  0.7787       18.41       2.523              
  4.24000E+01  1.29000E+01  6.65000E-01  6.06000E-01  9.93262E+00  0.7700       19.91       2.967              
  4.24000E+01  1.32000E+01  6.82000E-01  6.09000E-01  9.93262E+00  0.7525       22.95       3.267              
  4.33000E+01  1.05000E+01  7.41000E-01  1.23000E+00  1.23069E+01   1.172       5.946       1.807              
  4.35000E+01  1.54000E+01  1.08000E+00  7.81000E-01  1.28345E+01  0.8334       5.643       2.565              
  4.35000E+01  9.07000E+00  6.44000E-01  1.24000E+00  1.28345E+01   1.415       34.17       3.765              
  4.36000E+01  1.40000E+01  7.28000E-01  8.83000E-01  1.30983E+01  0.9356       1.534      0.9017              
  4.37000E+01  1.45000E+01  7.51000E-01  8.87000E-01  1.33621E+01  0.9215       2.296       1.138              
  4.41000E+01  1.95000E+01  1.41000E+00  5.77000E-01  1.44174E+01  0.7394       12.99       5.083              
  4.42000E+01  1.81000E+01  9.47000E-01  8.94000E-01  1.46812E+01  0.8111       13.03       3.419              
  4.42000E+01  2.20000E+01  1.15000E+00  5.74000E-01  1.46812E+01  0.6673       40.50       7.319              
  4.42000E+01  2.11000E+01  1.10000E+00  5.76000E-01  1.46812E+01  0.6958       34.05       6.419              
  4.42000E+01  2.18000E+01  1.10000E+00  5.72000E-01  1.46812E+01  0.6734       41.88       7.119              
  4.42000E+01  2.20000E+01  1.14000E+00  5.74000E-01  1.46812E+01  0.6673       41.22       7.319              
  4.45000E+01  2.09000E+01  1.49000E+00  5.65000E-01  1.54726E+01  0.7403       13.27       5.427              
  4.45000E+01  2.16000E+01  1.53000E+00  5.62000E-01  1.54726E+01  0.7163       16.04       6.127              
  4.46000E+01  2.37000E+01  1.22000E+00  5.65000E-01  1.57364E+01  0.6640       42.61       7.964              
  4.46000E+01  2.19000E+01  1.11000E+00  5.63000E-01  1.57364E+01  0.7186       30.83       6.164              
  4.52000E+01  2.14000E+01  1.11000E+00  8.53000E-01  1.72131E+01  0.8044       14.23       4.187              
  4.54000E+01  2.30000E+01  1.19000E+00  8.70000E-01  1.76346E+01  0.7667       20.33       5.365              
  4.55000E+01  2.28000E+01  1.20000E+00  8.61000E-01  1.78453E+01  0.7827       17.05       4.955              
  4.57000E+01  2.95000E+01  1.33000E+00  8.44000E-01  1.82668E+01  0.6192       71.33       11.23              
  4.59000E+01  2.03000E+01  1.06000E+00  8.52000E-01  1.86883E+01  0.9206       2.312       1.612              
  4.59000E+01  1.89000E+01  1.40000E+00  1.23000E+00  1.86883E+01  0.9888      2.2867E-02  0.2117              
  4.61000E+01  2.34000E+01  1.66000E+00  1.23000E+00  1.91098E+01  0.8167       6.680       4.290              
  4.62000E+01  2.43000E+01  1.72000E+00  1.22000E+00  1.93205E+01  0.7951       8.381       4.979              
  4.67000E+01  3.04000E+01  1.60000E+00  8.69000E-01  2.03742E+01  0.6702       39.26       10.03              
  4.67000E+01  2.60000E+01  1.90000E+00  1.22000E+00  2.03742E+01  0.7836       8.767       5.626              
  4.71000E+01  3.12000E+01  1.62000E+00  8.56000E-01  2.12172E+01  0.6800       37.97       9.983              
  4.73000E+01  3.18000E+01  1.68000E+00  8.50000E-01  2.16386E+01  0.6805       36.58       10.16              
  4.74000E+01  3.48000E+01  1.87000E+00  8.32000E-01  2.18494E+01  0.6279       47.96       12.95              
  4.81000E+01  2.94000E+01  2.11000E+00  1.21000E+00  2.33245E+01  0.7934       8.291       6.075              
  4.87000E+01  3.73000E+01  1.95000E+00  8.21000E-01  2.45890E+01  0.6592       42.49       12.71              
  4.88000E+01  3.82000E+01  1.99000E+00  8.37000E-01  2.47997E+01  0.6492       45.34       13.40              
  4.88000E+01  3.50000E+01  2.48000E+00  1.20000E+00  2.47997E+01  0.7086       16.92       10.20              
  4.90000E+01  4.03000E+01  2.12000E+00  8.46000E-01  2.52212E+01  0.6258       50.59       15.08              
  4.92000E+01  3.87000E+01  2.05000E+00  8.28000E-01  2.56427E+01  0.6626       40.57       13.06              
  4.93000E+01  3.70000E+01  1.93000E+00  8.23000E-01  2.58534E+01  0.6987       33.36       11.15              
  4.99000E+01  3.91000E+01  2.80000E+00  1.20000E+00  2.71178E+01  0.6936       18.31       11.98              
  5.03000E+01  3.89000E+01  2.80000E+00  1.20000E+00  2.73723E+01  0.7037       16.95       11.53              
  5.04000E+01  4.43000E+01  2.31000E+00  8.18000E-01  2.73869E+01  0.6182       53.61       16.91              
  5.09000E+01  4.52000E+01  2.40000E+00  8.18000E-01  2.74598E+01  0.6075       54.64       17.74              
  5.10000E+01  5.30000E+01  5.51000E+00  1.82000E+00  2.74744E+01  0.5184       21.46       25.53              
  5.12000E+01  4.72000E+01  2.50000E+00  8.23000E-01  2.75035E+01  0.5827       62.07       19.70              
  5.12000E+01  4.48000E+01  3.19000E+00  1.19000E+00  2.75035E+01  0.6139       29.40       17.30              
  5.13000E+01  4.35000E+01  3.20000E+00  1.18000E+00  2.75181E+01  0.6326       24.94       15.98              
  5.20000E+01  4.75000E+01  2.50000E+00  8.01000E-01  2.76201E+01  0.5815       63.23       19.88              
  5.22000E+01  4.79000E+01  2.52000E+00  7.88000E-01  2.76493E+01  0.5772       64.58       20.25              
  5.24000E+01  4.48000E+01  3.30000E+00  1.18000E+00  2.76785E+01  0.6178       26.92       17.12              
  5.25000E+01  4.69000E+01  2.46000E+00  7.92000E-01  2.76930E+01  0.5905       60.96       19.21              
  5.26000E+01  4.87000E+01  2.60000E+00  7.97000E-01  2.77076E+01  0.5689       65.19       20.99              
  5.34000E+01  5.14000E+01  2.74000E+00  8.01000E-01  2.78242E+01  0.5413       74.03       23.58              
  5.34000E+01  5.01000E+01  3.55000E+00  1.18000E+00  2.78242E+01  0.5554       39.37       22.28              
  5.35000E+01  5.16000E+01  2.74000E+00  7.89000E-01  2.78388E+01  0.5395       75.20       23.76              
  5.38000E+01  4.91000E+01  3.48000E+00  1.17000E+00  2.78826E+01  0.5679       37.17       21.22              
  5.43000E+01  5.07000E+01  2.71000E+00  7.78000E-01  2.79554E+01  0.5514       70.44       22.74              
  5.45000E+01  4.93000E+01  3.60000E+00  1.17000E+00  2.79846E+01  0.5676       35.06       21.32              
  5.50000E+01  5.11000E+01  2.71000E+00  7.78000E-01  2.80575E+01  0.5491       72.30       23.04              
  5.53000E+01  5.03000E+01  2.66000E+00  7.60000E-01  2.78372E+01  0.5534       71.31       22.46              
  5.55000E+01  5.14000E+01  2.75000E+00  7.81000E-01  2.76903E+01  0.5387       74.33       23.71              
  5.57000E+01  4.93000E+01  3.60000E+00  1.15000E+00  2.75434E+01  0.5587       36.52       21.76              
  5.60000E+01  4.99000E+01  2.64000E+00  7.58000E-01  2.73231E+01  0.5476       73.13       22.58              
  5.64000E+01  5.03000E+01  2.70000E+00  7.56000E-01  2.70293E+01  0.5374       74.28       23.27              
  5.65000E+01  5.01000E+01  2.66000E+00  7.64000E-01  2.69559E+01  0.5380       75.70       23.14              
  5.70000E+01  4.82000E+01  2.63000E+00  7.41000E-01  2.65887E+01  0.5516       67.52       21.61              
  5.71000E+01  5.04000E+01  3.70000E+00  1.15000E+00  2.65152E+01  0.5261       41.67       23.88              
  5.73000E+01  4.87000E+01  2.66000E+00  7.37000E-01  2.63684E+01  0.5414       70.48       22.33              
  5.74000E+01  5.29000E+01  3.75000E+00  1.15000E+00  2.62949E+01  0.4971       50.33       26.61              
  5.75000E+01  4.99000E+01  2.67000E+00  7.56000E-01  2.62215E+01  0.5255       78.65       23.68              
  5.76000E+01  4.89000E+01  4.95000E+00  1.40000E+00  2.61480E+01  0.5347       21.13       22.75              
  5.78000E+01  5.03000E+01  3.56000E+00  1.14000E+00  2.60012E+01  0.5169       46.59       24.30              
  5.80000E+01  4.83000E+01  2.60000E+00  7.41000E-01  2.58543E+01  0.5353       74.53       22.45              
  5.84000E+01  4.68000E+01  2.56000E+00  7.27000E-01  2.55605E+01  0.5462       68.83       21.24              
  5.88000E+01  4.69000E+01  2.50000E+00  7.24000E-01  2.52668E+01  0.5387       74.88       21.63              
  5.95000E+01  4.67000E+01  2.50000E+00  7.23000E-01  2.47527E+01  0.5300       77.07       21.95              
  5.95000E+01  4.71000E+01  2.50000E+00  7.27000E-01  2.47527E+01  0.5255       79.90       22.35              
  5.98000E+01  4.78000E+01  3.39000E+00  1.13000E+00  2.45323E+01  0.5132       47.11       23.27              
  5.98000E+01  4.57000E+01  3.40000E+00  1.13000E+00  2.45323E+01  0.5368       38.76       21.17              
  6.06000E+01  4.53000E+01  2.40000E+00  7.09000E-01  2.38925E+01  0.5274       79.56       21.41              
  6.06000E+01  4.57000E+01  3.40000E+00  1.12000E+00  2.38925E+01  0.5228       41.14       21.81              
  6.09000E+01  4.37000E+01  2.32000E+00  7.12000E-01  2.36461E+01  0.5411       74.72       20.05              
  6.09000E+01  4.38000E+01  2.40000E+00  6.99000E-01  2.36461E+01  0.5399       70.52       20.15              
  6.17000E+01  4.37000E+01  2.34000E+00  7.09000E-01  2.29888E+01  0.5261       78.34       20.71              
  6.17000E+01  4.36000E+01  3.09000E+00  1.11000E+00  2.29888E+01  0.5273       44.49       20.61              
  6.22000E+01  4.55000E+01  3.21000E+00  1.11000E+00  2.25781E+01  0.4962       50.99       22.92              
  6.23000E+01  4.24000E+01  2.24000E+00  6.92000E-01  2.24959E+01  0.5306       78.96       19.90              
  6.23000E+01  4.09000E+01  2.24000E+00  6.86000E-01  2.24959E+01  0.5500       67.50       18.40              
  6.24000E+01  4.42000E+01  3.10000E+00  1.11000E+00  2.24138E+01  0.5071       49.39       21.79              
  6.26000E+01  4.20000E+01  2.25000E+00  6.92000E-01  2.22494E+01  0.5297       77.05       19.75              
  6.31000E+01  4.08000E+01  2.17000E+00  6.73000E-01  2.18387E+01  0.5353       76.35       18.96              
  6.33000E+01  4.11000E+01  2.17000E+00  6.73000E-01  2.16744E+01  0.5274       80.14       19.43              
  6.36000E+01  4.01000E+01  2.12000E+00  6.81000E-01  2.14279E+01  0.5344       77.57       18.67              
  6.36000E+01  4.07000E+01  2.18000E+00  6.84000E-01  2.14279E+01  0.5265       78.15       19.27              
  6.37000E+01  4.05000E+01  2.86000E+00  1.10000E+00  2.13457E+01  0.5271       44.85       19.15              
  6.38000E+01  4.17000E+01  3.10000E+00  1.10000E+00  2.12636E+01  0.5099       43.46       20.44              
  6.40000E+01  3.97000E+01  2.13000E+00  6.73000E-01  2.10993E+01  0.5315       76.26       18.60              
  6.42000E+01  4.06000E+01  3.00000E+00  1.09000E+00  2.09350E+01  0.5156       42.97       19.67              
  6.49000E+01  3.84000E+01  2.03000E+00  6.63000E-01  2.03599E+01  0.5302       78.97       18.04              
  6.52000E+01  3.97000E+01  2.81000E+00  1.09000E+00  2.01995E+01  0.5088       48.16       19.50              
  6.55000E+01  3.75000E+01  2.01000E+00  6.48000E-01  2.00821E+01  0.5355       75.09       17.42              
  6.55000E+01  3.80000E+01  2.03000E+00  6.59000E-01  2.00821E+01  0.5285       77.91       17.92              
  6.56000E+01  3.75000E+01  2.65000E+00  1.08000E+00  2.00430E+01  0.5345       43.40       17.46              
  6.58000E+01  3.66000E+01  1.94000E+00  6.40000E-01  1.99648E+01  0.5455       73.53       16.64              
  6.60000E+01  3.72000E+01  1.96000E+00  6.41000E-01  1.98865E+01  0.5346       78.03       17.31              
  6.60000E+01  4.01000E+01  3.00000E+00  1.08000E+00  1.98865E+01  0.4959       45.40       20.21              
  6.69000E+01  3.57000E+01  1.92000E+00  6.32000E-01  1.95345E+01  0.5472       70.89       16.17              
  6.74000E+01  3.57000E+01  1.91000E+00  6.29000E-01  1.93389E+01  0.5417       73.38       16.36              
  6.74000E+01  3.53000E+01  2.50000E+00  1.07000E+00  1.93389E+01  0.5478       40.76       15.96              
  6.74000E+01  3.40000E+01  2.50000E+00  1.07000E+00  1.93389E+01  0.5688       34.39       14.66              
  6.75000E+01  3.56000E+01  1.87000E+00  6.22000E-01  1.92997E+01  0.5421       75.98       16.30              
  6.77000E+01  3.64000E+01  2.00000E+00  1.07000E+00  1.92215E+01  0.5281       73.78       17.18              
  6.82000E+01  3.58000E+01  2.53000E+00  1.06000E+00  1.90259E+01  0.5314       43.96       16.77              
  6.83000E+01  3.45000E+01  1.85000E+00  6.10000E-01  1.89868E+01  0.5503       70.32       15.51              
  6.85000E+01  3.43000E+01  1.81000E+00  6.02000E-01  1.89085E+01  0.5513       72.31       15.39              
  6.85000E+01  3.43000E+01  1.81000E+00  6.01000E-01  1.89085E+01  0.5513       72.31       15.39              
  6.88000E+01  3.44000E+01  1.81000E+00  6.04000E-01  1.87912E+01  0.5463       74.37       15.61              
  6.92000E+01  3.49000E+01  1.86000E+00  5.97000E-01  1.86347E+01  0.5339       76.47       16.27              
  6.92000E+01  3.37000E+01  2.38000E+00  1.05000E+00  1.86347E+01  0.5530       40.07       15.07              
  6.94000E+01  3.31000E+01  2.50000E+00  1.05000E+00  1.85565E+01  0.5606       33.84       14.54              
  6.96000E+01  3.36000E+01  1.80000E+00  5.88000E-01  1.84782E+01  0.5499       70.58       15.12              
  7.00000E+01  3.34000E+01  1.76000E+00  5.82000E-01  1.83218E+01  0.5486       73.40       15.08              
  7.14000E+01  3.25000E+01  1.74000E+00  5.50000E-01  1.83266E+01  0.5639       66.35       14.17              
  7.14000E+01  3.28000E+01  1.73000E+00  5.47000E-01  1.83266E+01  0.5587       69.99       14.47              
  7.14000E+01  3.23000E+01  1.75000E+00  5.49000E-01  1.83266E+01  0.5674       63.76       13.97              
  7.14000E+01  3.36000E+01  1.79000E+00  5.50000E-01  1.83266E+01  0.5454       72.81       15.27              
  7.14000E+01  3.14000E+01  2.30000E+00  1.02000E+00  1.83266E+01  0.5836       32.31       13.07              
  7.14000E+01  3.36000E+01  2.38000E+00  1.03000E+00  1.83266E+01  0.5454       41.18       15.27              
  7.14000E+01  3.27000E+01  2.31000E+00  1.02000E+00  1.83266E+01  0.5604       38.72       14.37              
  7.14000E+01  3.28000E+01  2.40000E+00  1.03000E+00  1.83266E+01  0.5587       36.37       14.47              
  7.15000E+01  3.24000E+01  1.76000E+00  5.48000E-01  1.83269E+01  0.5656       63.94       14.07              
  7.15000E+01  3.29000E+01  1.74000E+00  5.47000E-01  1.83269E+01  0.5570       70.15       14.57              
  7.40000E+01  3.27000E+01  3.30000E+00  1.04000E+00  1.83355E+01  0.5607       18.95       14.36              
  8.53000E+01  3.98000E+01  4.13000E+00  1.08000E+00  2.55834E+01  0.6428       11.85       14.22              
  8.81000E+01  3.87000E+01  3.92000E+00  7.91000E-01  2.81076E+01  0.7263       7.302       10.59              
  9.99000E+01  4.44000E+01  3.20000E+00  1.50000E+00  3.68608E+01  0.8302       5.551       7.539              
  1.01000E+02  3.95000E+01  3.60000E+00  1.69000E+00  3.71115E+01  0.9395      0.4402       2.389              
  1.11000E+02  4.10000E+01  3.10000E+00  1.40000E+00  3.86678E+01  0.9431      0.5660       2.332              
  1.11000E+02  4.10000E+01  3.72000E+00  1.61000E+00  3.86678E+01  0.9431      0.3931       2.332              
  1.21000E+02  4.30000E+01  3.00000E+00  1.30000E+00  3.79709E+01  0.8830       2.810       5.029              
  1.21000E+02  4.09000E+01  3.72000E+00  1.53000E+00  3.79709E+01  0.9284      0.6200       2.929              
  1.31000E+02  4.32000E+01  3.10000E+00  1.30000E+00  3.63858E+01  0.8423       4.832       6.814              
  1.31000E+02  4.08000E+01  3.69000E+00  1.43000E+00  3.63858E+01  0.8918       1.431       4.414              
  1.40000E+02  4.30000E+01  3.00000E+00  1.20000E+00  3.47577E+01  0.8083       7.548       8.242              
  1.40000E+02  4.24000E+01  3.69000E+00  1.34000E+00  3.47577E+01  0.8198       4.289       7.642              
  1.48000E+02  4.22000E+01  3.00000E+00  1.10000E+00  3.39143E+01  0.8037       7.628       8.286              
  1.49000E+02  4.23000E+01  3.66000E+00  1.25000E+00  3.38089E+01  0.7993       5.382       8.491              
  1.58000E+02  4.08000E+01  2.90000E+00  1.10000E+00  3.22965E+01  0.7916       8.598       8.504              
  1.58000E+02  3.88000E+01  3.56000E+00  1.14000E+00  3.22965E+01  0.8324       3.337       6.504              
  1.20000E+03  2.30000E+01  4.83000E-01  9.86000E-01
  1.59000E+03  2.01000E+01  4.38000E-01  1.00000E+00
#
# Average deviation:                                                1.723       78.78       10.49    
#
# Full reference:
#R.Michel,  R.Bodemann,  H.Busemann,  R.Daunke,  M.Gloris, H.-J.Lange,  B.Klug,  A.Krins,  I.Leya,
# M.Luepke, S.Neumann,  H.Reinhardt,  M.Schnatz-Buettgen, U.Herpers,  Th.Schiekel,  F.Sudbrock,  B.Holmqvist, H.Conde,
# P.Malmborg,  M.Suter,  B.Dittrich-Hannen, P.-W.Kubik,  H.-A.Sinal,  D.Filges
#Jour. Nucl. Instrum. Methods in Physics Res., Sect.B Vol.129, p.153, 1997
#Cross sections for the production of residual nuclides by low- and medium-energy protons from the target elements C, N, O, Mg, Al, Si, Ca, Ti, V, Mn, Fe, Co,
#Ni, Cu, Sr, Y, Zr, Nb, Ba and Au.
#
# Quality information:
#
# Quality  O0276131 : T1
# Date     O0276131 : 05-01-2018
# Reaction O0276131 : NP:  210 E-range:   22.5    -  1.590E+03 MeV 29-CU-0(P,X)27-CO-57,,SIG           pdf: y
# Paper    O0276131 : R.Michel+ Jour. Nucl. Instrum. Methods in Physics Res., Sect.B Vol.129, p.153, 1997 Cross sections for the production of residual nuclides b
# Action   O0276131 : 
# Comment  O0276131 : Evaluation        N=   207 F=   1.72     chi-2=   78.8     D=   10.5     mb T=   16.9     mb E=   27.0     K1=  1.72     K2=  9.56
# Comment  O0276131 : TALYS             N=   207 F=   1.72     chi-2=   78.8     D=   10.5     mb T=   16.9     mb E=   27.0     K1=  1.72     K2=  9.56
# Comment  O0276131 : cendl3.1          N=     0 F=   0.00     chi-2=   0.00     D=   0.00     mb T=   0.00     mb E=   27.0     K1=  0.00     K2=  0.00
# Comment  O0276131 : eaf.2010          N=     0 F=   0.00     chi-2=   0.00     D=   0.00     mb T=   0.00     mb E=   27.0     K1=  0.00     K2=  0.00
# Comment  O0276131 : endfb8.0          N=     0 F=   0.00     chi-2=   0.00     D=   0.00     mb T=   0.00     mb E=   27.0     K1=  0.00     K2=  0.00
# Comment  O0276131 : irdff1.0          N=     0 F=   0.00     chi-2=   0.00     D=   0.00     mb T=   0.00     mb E=   27.0     K1=  0.00     K2=  0.00
# Comment  O0276131 : jeff3.3           N=     0 F=   0.00     chi-2=   0.00     D=   0.00     mb T=   0.00     mb E=   27.0     K1=  0.00     K2=  0.00
# Comment  O0276131 : jendl4.0          N=     0 F=   0.00     chi-2=   0.00     D=   0.00     mb T=   0.00     mb E=   27.0     K1=  0.00     K2=  0.00
# Comment  O0276131 : tendl.2017        N=     0 F=   0.00     chi-2=   0.00     D=   0.00     mb T=   0.00     mb E=   27.0     K1=  0.00     K2=  0.00
