# Target Z    :  13
# Target A    :  27
# Target state:  
# Projectile  : p
# Reaction    : (p,g)     
# Final state :  
# Quantity    : Cross section
# Frame       : L
# MF          :    3
# MT          :  102
# X4 ID       : F1188002 
# X4 code     : 13-AL-27(P,G)14-SI-28,,SIG
# Author      : Lyons                    
# Year        : 1969
# Data points :    172
#    E(MeV)       xs(mb)      dxs(mb)     dE(MeV)      Evaluation  C/E(F)      Chi-2     Delta(mb)
  1.42100E+00  4.17620E-03  0.00000E+00  0.00000E+00  4.77523E-03   1.143       0.000      5.9903E-04          
  1.42570E+00  4.17690E-03  0.00000E+00  0.00000E+00  4.77396E-03   1.143       0.000      5.9706E-04          
  1.43090E+00  4.17770E-03  0.00000E+00  0.00000E+00  4.77255E-03   1.142       0.000      5.9485E-04          
  1.43770E+00  4.15340E-03  0.00000E+00  0.00000E+00  4.77072E-03   1.149       0.000      6.1732E-04          
  1.44300E+00  4.12900E-03  0.00000E+00  0.00000E+00  4.76930E-03   1.155       0.000      6.4030E-04          
  1.44930E+00  4.12990E-03  0.00000E+00  0.00000E+00  4.76762E-03   1.154       0.000      6.3772E-04          
  1.45500E+00  4.00470E-03  0.00000E+00  0.00000E+00  4.76610E-03   1.190       0.000      7.6140E-04          
  1.46030E+00  3.92980E-03  0.00000E+00  0.00000E+00  4.76470E-03   1.212       0.000      8.3490E-04          
  1.46710E+00  3.85510E-03  0.00000E+00  0.00000E+00  4.76291E-03   1.235       0.000      9.0781E-04          
  1.47180E+00  3.72970E-03  0.00000E+00  0.00000E+00  4.76168E-03   1.277       0.000      1.0320E-03          
  1.47760E+00  3.55410E-03  0.00000E+00  0.00000E+00  4.76016E-03   1.339       0.000      1.2061E-03          
  1.48180E+00  3.40340E-03  0.00000E+00  0.00000E+00  4.75907E-03   1.398       0.000      1.3557E-03          
  1.48810E+00  3.22780E-03  0.00000E+00  0.00000E+00  4.75743E-03   1.474       0.000      1.5296E-03          
  1.49280E+00  3.00160E-03  0.00000E+00  0.00000E+00  4.75622E-03   1.585       0.000      1.7546E-03          
  1.49960E+00  2.77560E-03  0.00000E+00  0.00000E+00  4.75447E-03   1.713       0.000      1.9789E-03          
  1.50440E+00  2.57460E-03  0.00000E+00  0.00000E+00  4.75324E-03   1.846       0.000      2.1786E-03          
  1.50910E+00  2.32310E-03  0.00000E+00  0.00000E+00  4.75204E-03   2.046       0.000      2.4289E-03          
  1.51430E+00  2.07180E-03  0.00000E+00  0.00000E+00  4.75072E-03   2.293       0.000      2.6789E-03          
  1.51850E+00  1.84540E-03  0.00000E+00  0.00000E+00  4.74965E-03   2.574       0.000      2.9043E-03          
  1.52430E+00  1.56890E-03  0.00000E+00  0.00000E+00  4.74819E-03   3.026       0.000      3.1793E-03          
  1.52750E+00  1.46850E-03  0.00000E+00  0.00000E+00  4.74738E-03   3.233       0.000      3.2789E-03          
  1.53380E+00  1.29290E-03  0.00000E+00  0.00000E+00  4.74580E-03   3.671       0.000      3.4529E-03          
  1.54270E+00  1.16810E-03  0.00000E+00  0.00000E+00  4.74358E-03   4.061       0.000      3.5755E-03          
  1.54790E+00  1.16890E-03  0.00000E+00  0.00000E+00  4.74228E-03   4.057       0.000      3.5734E-03          
  1.55680E+00  1.17020E-03  0.00000E+00  0.00000E+00  4.74008E-03   4.051       0.000      3.5699E-03          
  1.56470E+00  1.24700E-03  0.00000E+00  0.00000E+00  4.73814E-03   3.800       0.000      3.4911E-03          
  1.57100E+00  1.29830E-03  0.00000E+00  0.00000E+00  4.73660E-03   3.648       0.000      3.4383E-03          
  1.57980E+00  1.52660E-03  0.00000E+00  0.00000E+00  4.73446E-03   3.101       0.000      3.2079E-03          
  1.58560E+00  1.65350E-03  0.00000E+00  0.00000E+00  4.73306E-03   2.862       0.000      3.0796E-03          
  1.59190E+00  1.85610E-03  0.00000E+00  0.00000E+00  4.73154E-03   2.549       0.000      2.8754E-03          
  1.59660E+00  2.05850E-03  0.00000E+00  0.00000E+00  4.73041E-03   2.298       0.000      2.6719E-03          
  1.60290E+00  2.26110E-03  0.00000E+00  0.00000E+00  4.72890E-03   2.091       0.000      2.4678E-03          
  1.60650E+00  2.51380E-03  0.00000E+00  0.00000E+00  4.72804E-03   1.881       0.000      2.2142E-03          
  1.61330E+00  2.79220E-03  0.00000E+00  0.00000E+00  4.72643E-03   1.693       0.000      1.9342E-03          
  1.61850E+00  2.96940E-03  0.00000E+00  0.00000E+00  4.72520E-03   1.591       0.000      1.7558E-03          
  1.62640E+00  2.97060E-03  0.00000E+00  0.00000E+00  4.72333E-03   1.590       0.000      1.7527E-03          
  1.63210E+00  3.04710E-03  0.00000E+00  0.00000E+00  4.72199E-03   1.550       0.000      1.6749E-03          
  1.63950E+00  3.04810E-03  0.00000E+00  0.00000E+00  4.72027E-03   1.549       0.000      1.6722E-03          
  1.64630E+00  3.07430E-03  0.00000E+00  0.00000E+00  4.71869E-03   1.535       0.000      1.6444E-03          
  1.65410E+00  3.15110E-03  0.00000E+00  0.00000E+00  4.71688E-03   1.497       0.000      1.5658E-03          
  1.66200E+00  3.30360E-03  0.00000E+00  0.00000E+00  4.71506E-03   1.427       0.000      1.4115E-03          
  1.66510E+00  3.40490E-03  0.00000E+00  0.00000E+00  4.71435E-03   1.385       0.000      1.3094E-03          
  1.67350E+00  3.53220E-03  0.00000E+00  0.00000E+00  4.71243E-03   1.334       0.000      1.1802E-03          
  1.68130E+00  3.63420E-03  0.00000E+00  0.00000E+00  4.71066E-03   1.296       0.000      1.0765E-03          
  1.68870E+00  3.71090E-03  0.00000E+00  0.00000E+00  4.70898E-03   1.269       0.000      9.9808E-04          
  1.69650E+00  3.66160E-03  0.00000E+00  0.00000E+00  4.70723E-03   1.286       0.000      1.0456E-03          
  1.70440E+00  3.53670E-03  0.00000E+00  0.00000E+00  4.70546E-03   1.330       0.000      1.1688E-03          
  1.71120E+00  3.43680E-03  0.00000E+00  0.00000E+00  4.70394E-03   1.369       0.000      1.2671E-03          
  1.71800E+00  3.31170E-03  0.00000E+00  0.00000E+00  4.70243E-03   1.420       0.000      1.3907E-03          
  1.72590E+00  3.21200E-03  0.00000E+00  0.00000E+00  4.70068E-03   1.463       0.000      1.4887E-03          
  1.73320E+00  3.13740E-03  0.00000E+00  0.00000E+00  4.69908E-03   1.498       0.000      1.5617E-03          
  1.74160E+00  3.11340E-03  0.00000E+00  0.00000E+00  4.69724E-03   1.509       0.000      1.5838E-03          
  1.74840E+00  3.06400E-03  0.00000E+00  0.00000E+00  4.69576E-03   1.533       0.000      1.6318E-03          
  1.75730E+00  2.91400E-03  0.00000E+00  0.00000E+00  4.69383E-03   1.611       0.000      1.7798E-03          
  1.76730E+00  2.89020E-03  0.00000E+00  0.00000E+00  4.69167E-03   1.623       0.000      1.8015E-03          
  1.77200E+00  2.89090E-03  0.00000E+00  0.00000E+00  4.69066E-03   1.623       0.000      1.7998E-03          
  1.78350E+00  2.86740E-03  0.00000E+00  0.00000E+00  4.68821E-03   1.635       0.000      1.8208E-03          
  1.79190E+00  2.96950E-03  0.00000E+00  0.00000E+00  4.68642E-03   1.578       0.000      1.7169E-03          
  1.79970E+00  3.12190E-03  0.00000E+00  0.00000E+00  4.68478E-03   1.501       0.000      1.5629E-03          
  1.80810E+00  3.50130E-03  0.00000E+00  0.00000E+00  4.68301E-03   1.338       0.000      1.1817E-03          
  1.81280E+00  3.80460E-03  0.00000E+00  0.00000E+00  4.68203E-03   1.231       0.000      8.7743E-04          
  1.81540E+00  4.10760E-03  0.00000E+00  0.00000E+00  4.68149E-03   1.140       0.000      5.7389E-04          
  1.82380E+00  4.43660E-03  0.00000E+00  0.00000E+00  4.67974E-03   1.055       0.000      2.4314E-04          
  1.83060E+00  4.58880E-03  0.00000E+00  0.00000E+00  4.67833E-03   1.020       0.000      8.9527E-05          
  1.83680E+00  4.86710E-03  0.00000E+00  0.00000E+00  4.67705E-03  0.9610       0.000      1.9005E-04          
  1.84520E+00  5.07010E-03  0.00000E+00  0.00000E+00  4.67532E-03  0.9221       0.000      3.9478E-04          
  1.85040E+00  5.29780E-03  0.00000E+00  0.00000E+00  4.67425E-03  0.8823       0.000      6.2354E-04          
  1.85770E+00  5.57620E-03  0.00000E+00  0.00000E+00  4.67276E-03  0.8380       0.000      9.0344E-04          
  1.86240E+00  5.87940E-03  0.00000E+00  0.00000E+00  4.67181E-03  0.7946       0.000      1.2076E-03          
  1.86870E+00  6.18290E-03  0.00000E+00  0.00000E+00  4.67053E-03  0.7554       0.000      1.5124E-03          
  1.87600E+00  6.53700E-03  0.00000E+00  0.00000E+00  4.66906E-03  0.7143       0.000      1.8679E-03          
  1.88280E+00  6.81540E-03  0.00000E+00  0.00000E+00  4.66769E-03  0.6849       0.000      2.1477E-03          
  1.88750E+00  7.01780E-03  0.00000E+00  0.00000E+00  4.66675E-03  0.6650       0.000      2.3510E-03          
  1.89590E+00  7.39720E-03  0.00000E+00  0.00000E+00  4.66507E-03  0.6307       0.000      2.7321E-03          
  1.90210E+00  7.72590E-03  0.00000E+00  0.00000E+00  4.66384E-03  0.6037       0.000      3.0621E-03          
  1.90890E+00  8.00430E-03  0.00000E+00  0.00000E+00  4.66249E-03  0.5825       0.000      3.3418E-03          
  1.91680E+00  8.23230E-03  0.00000E+00  0.00000E+00  4.66093E-03  0.5662       0.000      3.5714E-03          
  1.92460E+00  8.53600E-03  0.00000E+00  0.00000E+00  4.65940E-03  0.5459       0.000      3.8766E-03          
  1.92980E+00  8.71330E-03  0.00000E+00  0.00000E+00  4.65839E-03  0.5346       0.000      4.0549E-03          
  1.93710E+00  9.06740E-03  0.00000E+00  0.00000E+00  4.65696E-03  0.5136       0.000      4.4104E-03          
  1.94390E+00  9.34570E-03  0.00000E+00  0.00000E+00  4.65564E-03  0.4982       0.000      4.6901E-03          
  1.95020E+00  9.62400E-03  0.00000E+00  0.00000E+00  4.65442E-03  0.4836       0.000      4.9696E-03          
  1.95750E+00  9.85200E-03  0.00000E+00  0.00000E+00  4.65301E-03  0.4723       0.000      5.1990E-03          
  1.96380E+00  1.00040E-02  0.00000E+00  0.00000E+00  4.65180E-03  0.4650       0.000      5.3522E-03          
  1.96850E+00  1.01560E-02  0.00000E+00  0.00000E+00  4.65090E-03  0.4579       0.000      5.5051E-03          
  1.97840E+00  1.02840E-02  0.00000E+00  0.00000E+00  4.64901E-03  0.4521       0.000      5.6350E-03          
  1.98520E+00  1.02850E-02  0.00000E+00  0.00000E+00  4.64772E-03  0.4519       0.000      5.6373E-03          
  1.99310E+00  1.02350E-02  0.00000E+00  0.00000E+00  4.64623E-03  0.4540       0.000      5.5888E-03          
  2.00040E+00  1.01100E-02  0.00000E+00  0.00000E+00  4.64487E-03  0.4594       0.000      5.4651E-03          
  2.00830E+00  9.98550E-03  0.00000E+00  0.00000E+00  4.64361E-03  0.4650       0.000      5.3419E-03          
  2.01510E+00  9.65870E-03  0.00000E+00  0.00000E+00  4.64254E-03  0.4807       0.000      5.0162E-03          
  2.02090E+00  9.43260E-03  0.00000E+00  0.00000E+00  4.64162E-03  0.4921       0.000      4.7910E-03          
  2.02770E+00  9.13100E-03  0.00000E+00  0.00000E+00  4.64056E-03  0.5082       0.000      4.4904E-03          
  2.03350E+00  8.77880E-03  0.00000E+00  0.00000E+00  4.63965E-03  0.5285       0.000      4.1392E-03          
  2.04040E+00  8.47730E-03  0.00000E+00  0.00000E+00  4.63857E-03  0.5472       0.000      3.8387E-03          
  2.04560E+00  8.15020E-03  0.00000E+00  0.00000E+00  4.63776E-03  0.5690       0.000      3.5124E-03          
  2.05090E+00  7.92410E-03  0.00000E+00  0.00000E+00  4.63694E-03  0.5852       0.000      3.2872E-03          
  2.05170E+00  7.76520E-03  0.00000E+00  0.00000E+00  4.63682E-03  0.5971       0.000      3.1284E-03          
  2.05480E+00  7.46380E-03  0.00000E+00  0.00000E+00  4.63634E-03  0.6212       0.000      2.8275E-03          
  2.06150E+00  7.16300E-03  0.00000E+00  0.00000E+00  4.63530E-03  0.6471       0.000      2.5277E-03          
  2.06760E+00  6.93750E-03  0.00000E+00  0.00000E+00  4.63436E-03  0.6680       0.000      2.3031E-03          
  2.07840E+00  6.76310E-03  0.00000E+00  0.00000E+00  4.63271E-03  0.6850       0.000      2.1304E-03          
  2.08710E+00  6.76440E-03  0.00000E+00  0.00000E+00  4.63138E-03  0.6847       0.000      2.1330E-03          
  2.09220E+00  6.76520E-03  0.00000E+00  0.00000E+00  4.63061E-03  0.6845       0.000      2.1346E-03          
  2.10140E+00  6.66600E-03  0.00000E+00  0.00000E+00  4.62922E-03  0.6945       0.000      2.0368E-03          
  2.10910E+00  6.66720E-03  0.00000E+00  0.00000E+00  4.62806E-03  0.6942       0.000      2.0391E-03          
  2.11830E+00  6.69370E-03  0.00000E+00  0.00000E+00  4.62668E-03  0.6912       0.000      2.0670E-03          
  2.12700E+00  6.66990E-03  0.00000E+00  0.00000E+00  4.62538E-03  0.6935       0.000      2.0445E-03          
  2.13720E+00  6.67150E-03  0.00000E+00  0.00000E+00  4.62386E-03  0.6931       0.000      2.0476E-03          
  2.14590E+00  6.67280E-03  0.00000E+00  0.00000E+00  4.62258E-03  0.6927       0.000      2.0502E-03          
  2.15310E+00  6.77450E-03  0.00000E+00  0.00000E+00  4.62152E-03  0.6822       0.000      2.1530E-03          
  2.16080E+00  6.87630E-03  0.00000E+00  0.00000E+00  4.62039E-03  0.6719       0.000      2.2559E-03          
  2.16840E+00  7.05360E-03  0.00000E+00  0.00000E+00  4.61928E-03  0.6549       0.000      2.4343E-03          
  2.17560E+00  7.33130E-03  0.00000E+00  0.00000E+00  4.61823E-03  0.6299       0.000      2.7131E-03          
  2.18370E+00  7.48350E-03  0.00000E+00  0.00000E+00  4.61705E-03  0.6170       0.000      2.8664E-03          
  2.18990E+00  7.68570E-03  0.00000E+00  0.00000E+00  4.61615E-03  0.6006       0.000      3.0695E-03          
  2.19750E+00  7.86300E-03  0.00000E+00  0.00000E+00  4.61506E-03  0.5869       0.000      3.2479E-03          
  2.20670E+00  7.99010E-03  0.00000E+00  0.00000E+00  4.61374E-03  0.5774       0.000      3.3764E-03          
  2.21440E+00  8.06680E-03  0.00000E+00  0.00000E+00  4.61264E-03  0.5718       0.000      3.4542E-03          
  2.22260E+00  8.09320E-03  0.00000E+00  0.00000E+00  4.61147E-03  0.5698       0.000      3.4817E-03          
  2.22930E+00  7.94330E-03  0.00000E+00  0.00000E+00  4.61052E-03  0.5804       0.000      3.3328E-03          
  2.23690E+00  7.79350E-03  0.00000E+00  0.00000E+00  4.60945E-03  0.5914       0.000      3.1841E-03          
  2.24260E+00  7.66860E-03  0.00000E+00  0.00000E+00  4.60864E-03  0.6010       0.000      3.0600E-03          
  2.24920E+00  7.56900E-03  0.00000E+00  0.00000E+00  4.60771E-03  0.6088       0.000      2.9613E-03          
  2.25640E+00  7.36890E-03  0.00000E+00  0.00000E+00  4.60670E-03  0.6252       0.000      2.7622E-03          
  2.26510E+00  7.11860E-03  0.00000E+00  0.00000E+00  4.60549E-03  0.6470       0.000      2.5131E-03          
  2.27330E+00  6.89350E-03  0.00000E+00  0.00000E+00  4.60435E-03  0.6679       0.000      2.2892E-03          
  2.28150E+00  6.59290E-03  0.00000E+00  0.00000E+00  4.60321E-03  0.6982       0.000      1.9897E-03          
  2.28720E+00  6.41770E-03  0.00000E+00  0.00000E+00  4.60243E-03  0.7171       0.000      1.8153E-03          
  2.29330E+00  6.26770E-03  0.00000E+00  0.00000E+00  4.60159E-03  0.7342       0.000      1.6661E-03          
  2.29950E+00  6.21830E-03  0.00000E+00  0.00000E+00  4.60074E-03  0.7399       0.000      1.6176E-03          
  2.30870E+00  6.06880E-03  0.00000E+00  0.00000E+00  4.59948E-03  0.7579       0.000      1.4693E-03          
  2.31790E+00  5.91930E-03  0.00000E+00  0.00000E+00  4.59823E-03  0.7768       0.000      1.3211E-03          
  2.32400E+00  5.84480E-03  0.00000E+00  0.00000E+00  4.59740E-03  0.7866       0.000      1.2474E-03          
  2.33280E+00  5.77060E-03  0.00000E+00  0.00000E+00  4.59621E-03  0.7965       0.000      1.1744E-03          
  2.34350E+00  5.77230E-03  0.00000E+00  0.00000E+00  4.59477E-03  0.7960       0.000      1.1775E-03          
  2.35010E+00  5.89910E-03  0.00000E+00  0.00000E+00  4.59388E-03  0.7787       0.000      1.3052E-03          
  2.35730E+00  6.15170E-03  0.00000E+00  0.00000E+00  4.59292E-03  0.7466       0.000      1.5588E-03          
  2.36140E+00  6.37870E-03  0.00000E+00  0.00000E+00  4.59237E-03  0.7200       0.000      1.7863E-03          
  2.36750E+00  6.63120E-03  0.00000E+00  0.00000E+00  4.59156E-03  0.6924       0.000      2.0396E-03          
  2.37360E+00  6.85850E-03  0.00000E+00  0.00000E+00  4.59075E-03  0.6694       0.000      2.2677E-03          
  2.37920E+00  7.23670E-03  0.00000E+00  0.00000E+00  4.59001E-03  0.6343       0.000      2.6467E-03          
  2.38430E+00  7.53930E-03  0.00000E+00  0.00000E+00  4.58934E-03  0.6087       0.000      2.9500E-03          
  2.39040E+00  7.86730E-03  0.00000E+00  0.00000E+00  4.58853E-03  0.5832       0.000      3.2788E-03          
  2.39450E+00  8.11950E-03  0.00000E+00  0.00000E+00  4.58799E-03  0.5651       0.000      3.5315E-03          
  2.39910E+00  8.47230E-03  0.00000E+00  0.00000E+00  4.58739E-03  0.5415       0.000      3.8849E-03          
  2.40420E+00  8.80010E-03  0.00000E+00  0.00000E+00  4.58672E-03  0.5212       0.000      4.2134E-03          
  2.40880E+00  9.10270E-03  0.00000E+00  0.00000E+00  4.58612E-03  0.5038       0.000      4.5166E-03          
  2.41700E+00  9.30520E-03  0.00000E+00  0.00000E+00  4.58506E-03  0.4927       0.000      4.7201E-03          
  2.42410E+00  9.30630E-03  0.00000E+00  0.00000E+00  4.58414E-03  0.4926       0.000      4.7222E-03          
  2.43130E+00  9.25710E-03  0.00000E+00  0.00000E+00  4.58320E-03  0.4951       0.000      4.6739E-03          
  2.43900E+00  9.13250E-03  0.00000E+00  0.00000E+00  4.58221E-03  0.5017       0.000      4.5503E-03          
  2.44610E+00  8.98260E-03  0.00000E+00  0.00000E+00  4.58130E-03  0.5100       0.000      4.4013E-03          
  2.45330E+00  8.85790E-03  0.00000E+00  0.00000E+00  4.58037E-03  0.5171       0.000      4.2775E-03          
  2.46410E+00  8.88470E-03  0.00000E+00  0.00000E+00  4.57900E-03  0.5154       0.000      4.3057E-03          
  2.47330E+00  8.93650E-03  0.00000E+00  0.00000E+00  4.57783E-03  0.5123       0.000      4.3587E-03          
  2.48250E+00  9.01330E-03  0.00000E+00  0.00000E+00  4.57666E-03  0.5078       0.000      4.4366E-03          
  2.49060E+00  9.06490E-03  0.00000E+00  0.00000E+00  4.57564E-03  0.5048       0.000      4.4893E-03          
  2.50090E+00  9.11680E-03  0.00000E+00  0.00000E+00  4.57435E-03  0.5017       0.000      4.5425E-03          
  2.50910E+00  9.16830E-03  0.00000E+00  0.00000E+00  4.57332E-03  0.4988       0.000      4.5950E-03          
  2.51780E+00  9.19480E-03  0.00000E+00  0.00000E+00  4.57224E-03  0.4973       0.000      4.6226E-03          
  2.52590E+00  9.27150E-03  0.00000E+00  0.00000E+00  4.57123E-03  0.4930       0.000      4.7003E-03          
  2.53570E+00  9.42390E-03  0.00000E+00  0.00000E+00  4.57002E-03  0.4849       0.000      4.8539E-03          
  2.54380E+00  9.45030E-03  0.00000E+00  0.00000E+00  4.56902E-03  0.4835       0.000      4.8813E-03          
  2.55200E+00  9.50190E-03  0.00000E+00  0.00000E+00  4.56801E-03  0.4807       0.000      4.9339E-03          
  2.55820E+00  9.60350E-03  0.00000E+00  0.00000E+00  4.56726E-03  0.4756       0.000      5.0362E-03          
  2.56790E+00  9.65530E-03  0.00000E+00  0.00000E+00  4.56607E-03  0.4729       0.000      5.0892E-03          
  2.57610E+00  9.73200E-03  0.00000E+00  0.00000E+00  4.56508E-03  0.4691       0.000      5.1669E-03          
  2.58580E+00  9.80890E-03  0.00000E+00  0.00000E+00  4.56390E-03  0.4653       0.000      5.2450E-03          
  2.59340E+00  9.93590E-03  0.00000E+00  0.00000E+00  4.56298E-03  0.4592       0.000      5.3729E-03          
  2.60210E+00  9.93720E-03  0.00000E+00  0.00000E+00  4.56193E-03  0.4591       0.000      5.3753E-03          
  2.61240E+00  9.96390E-03  0.00000E+00  0.00000E+00  4.56070E-03  0.4577       0.000      5.4032E-03          
#
# Average deviation:                                                1.807       0.000      2.7408E-03
#
# Full reference:
#P.B.Lyons, J.W.Toevs, D.G.Sargood
#Jour. Nuclear Physics, Section A Vol.130, p.1, 1969
#Total yield measurements in Al-27(p,g)Si-28.
#
# Quality information:
#
# Quality  F1188002 : T1
# Date     F1188002 : 05-01-2018
# Reaction F1188002 : NP:  172 E-range:   1.42    -   2.61     MeV 13-AL-27(P,G)14-SI-28,,SIG          pdf: y
# Paper    F1188002 : P.B.Lyons+ Jour. Nuclear Physics, Section A Vol.130, p.1, 1969 Total yield measurements in Al-27(p,g)Si-28.
# Action   F1188002 : 
# Comment  F1188002 : Evaluation        N=   172 F=   1.81     chi-2=   0.00     D=  2.741E-03 mb T=  4.657E-03 mb E=  6.097E-03 K1=  1.81     K2=  9.59
# Comment  F1188002 : TALYS             N=   172 F=   1.81     chi-2=   0.00     D=  2.741E-03 mb T=  4.657E-03 mb E=  6.097E-03 K1=  1.81     K2=  9.59
# Comment  F1188002 : cendl3.1          N=     0 F=   0.00     chi-2=   0.00     D=   0.00     mb T=   0.00     mb E=  6.097E-03 K1=  0.00     K2=  0.00
# Comment  F1188002 : eaf.2010          N=     0 F=   0.00     chi-2=   0.00     D=   0.00     mb T=   0.00     mb E=  6.097E-03 K1=  0.00     K2=  0.00
# Comment  F1188002 : endfb8.0          N=     0 F=   0.00     chi-2=   0.00     D=   0.00     mb T=   0.00     mb E=  6.097E-03 K1=  0.00     K2=  0.00
# Comment  F1188002 : irdff1.0          N=     0 F=   0.00     chi-2=   0.00     D=   0.00     mb T=   0.00     mb E=  6.097E-03 K1=  0.00     K2=  0.00
# Comment  F1188002 : jeff3.3           N=     0 F=   0.00     chi-2=   0.00     D=   0.00     mb T=   0.00     mb E=  6.097E-03 K1=  0.00     K2=  0.00
# Comment  F1188002 : jendl4.0          N=     0 F=   0.00     chi-2=   0.00     D=   0.00     mb T=   0.00     mb E=  6.097E-03 K1=  0.00     K2=  0.00
# Comment  F1188002 : tendl.2017        N=     0 F=   0.00     chi-2=   0.00     D=   0.00     mb T=   0.00     mb E=  6.097E-03 K1=  0.00     K2=  0.00
