# Target Z    :  29
# Target A    :  65
# Target state:  
# Projectile  : p
# Reaction    : (p,n')    
# Final state :  
# Quantity    : Cross section
# Frame       : L
# MF          :    3
# MT          :    4
# X4 ID       : C0738002 
# X4 code     : 29-CU-65(P,N)30-ZN-65,,SIG
# Author      : Hershberger              
# Year        : 1984
# Data points :     87
#    E(MeV)       xs(mb)      dxs(mb)     dE(MeV)      Evaluation  C/E(F)      Chi-2     Delta(mb)
  2.04400E+00  1.00000E-02  8.00000E-04  0.00000E+00  1.28500E+00   128.5      2.5400E+06   1.275              
  2.07000E+00  1.00000E-02  8.54000E-04  0.00000E+00  2.04432E+00   204.4      5.6744E+06   2.034              
  2.09500E+00  0.00000E+00  0.00000E+00  0.00000E+00
  2.12000E+00  7.00000E-02  1.24600E-03  0.00000E+00  3.50455E+00   50.06      7.5981E+06   3.435              
  2.14600E+00  3.20000E-01  2.52800E-03  0.00000E+00  4.26387E+00   13.32      2.4338E+06   3.944              
  2.17700E+00  7.50000E-01  3.82500E-03  0.00000E+00  5.16922E+00   6.892      1.3348E+06   4.419              
  2.19600E+00  1.12000E+00  4.59200E-03  0.00000E+00  5.72410E+00   5.111      1.0053E+06   4.604              
  2.22200E+00  1.72000E+00  5.67600E-03  0.00000E+00  6.48342E+00   3.769      7.0429E+05   4.763              
  2.24700E+00  2.21000E+00  6.40900E-03  0.00000E+00  7.21354E+00   3.264      6.0950E+05   5.004              
  2.27200E+00  2.59000E+00  9.84200E-03  0.00000E+00  7.94365E+00   3.067      2.9589E+05   5.354              
  2.29800E+00  3.10000E+00  1.08500E-02  0.00000E+00  8.70297E+00   2.807      2.6667E+05   5.603              
  2.32300E+00  3.45000E+00  1.13850E-02  0.00000E+00  9.43308E+00   2.734      2.7617E+05   5.983              
  2.34800E+00  3.93000E+00  1.21830E-02  0.00000E+00  1.01632E+01   2.586      2.6177E+05   6.233              
  2.37300E+00  4.62000E+00  1.33980E-02  0.00000E+00  1.08933E+01   2.358      2.1924E+05   6.273              
  2.39900E+00  5.07000E+00  1.36890E-02  0.00000E+00  1.16526E+01   2.298      2.3124E+05   6.583              
  2.42400E+00  5.49000E+00  1.42740E-02  0.00000E+00  1.23828E+01   2.256      2.3318E+05   6.893              
  2.44900E+00  6.30000E+00  1.57500E-02  0.00000E+00  1.31129E+01   2.081      1.8711E+05   6.813              
  2.47500E+00  7.00000E+00  1.61000E-02  0.00000E+00  1.38722E+01   1.982      1.8220E+05   6.872              
  2.50000E+00  7.64000E+00  1.68080E-02  0.00000E+00  1.46023E+01   1.911      1.7158E+05   6.962              
  2.52500E+00  8.59000E+00  2.83470E-02  0.00000E+00  1.53324E+01   1.785      5.6574E+04   6.742              
  2.55100E+00  8.78000E+00  2.89740E-02  0.00000E+00  1.60917E+01   1.833      6.3683E+04   7.312              
  2.57600E+00  9.26000E+00  2.96320E-02  0.00000E+00  1.68218E+01   1.817      6.5123E+04   7.562              
  2.60100E+00  9.80000E+00  3.03800E-02  0.00000E+00  1.75520E+01   1.791      6.5110E+04   7.752              
  2.62700E+00  1.03500E+01  3.10500E-02  0.00000E+00  1.83113E+01   1.769      6.5742E+04   7.961              
  2.65200E+00  1.13300E+01  3.28570E-02  0.00000E+00  1.90414E+01   1.681      5.5082E+04   7.711              
  2.67700E+00  1.18700E+01  3.32360E-02  0.00000E+00  1.97715E+01   1.666      5.6520E+04   7.902              
  2.70200E+00  1.23100E+01  4.80090E-02  0.00000E+00  2.05016E+01   1.665      2.9114E+04   8.192              
  2.72700E+00  1.29900E+01  4.93620E-02  0.00000E+00  2.12317E+01   1.634      2.7877E+04   8.242              
  2.75300E+00  1.35600E+01  5.01720E-02  0.00000E+00  2.19911E+01   1.622      2.8239E+04   8.431              
  2.77800E+00  1.50300E+01  5.41080E-02  0.00000E+00  2.27212E+01   1.512      2.0205E+04   7.691              
  2.80300E+00  1.63700E+01  5.56580E-02  0.00000E+00  2.34513E+01   1.433      1.6187E+04   7.081              
  2.82900E+00  2.03300E+01  6.30230E-02  0.00000E+00  2.42106E+01   1.191       3791.       3.881              
  2.85400E+00  2.17000E+01  6.51000E-02  0.00000E+00  2.49407E+01   1.149       2478.       3.241              
  2.87900E+00  2.27400E+01  6.59460E-02  0.00000E+00  2.56708E+01   1.129       1975.       2.931              
  2.90400E+00  2.61900E+01  7.07130E-02  0.00000E+00  2.64010E+01   1.008       8.900      0.2110              
  2.92900E+00  2.69200E+01  7.26840E-02  0.00000E+00  2.71311E+01   1.008       8.433      0.2111              
  2.95500E+00  2.71900E+01  7.06940E-02  0.00000E+00  2.78904E+01   1.026       98.16      0.7004              
  2.98000E+00  2.62300E+01  7.08210E-02  0.00000E+00  2.86205E+01   1.091       1139.       2.391              
  3.00500E+00  2.28600E+01  6.62940E-02  0.00000E+00  2.97209E+01   1.300      1.0710E+04   6.861              
  3.03000E+00  2.23700E+01  2.01330E-02  0.00000E+00  3.23023E+01   1.444      2.4338E+05   9.932              
  3.05500E+00  2.37700E+01  6.65560E-02  0.00000E+00  3.48837E+01   1.468      2.7883E+04   11.11              
  3.05600E+00  2.37400E+01  3.08620E-02  0.00000E+00  3.49869E+01   1.474      1.3281E+05   11.25              
  3.08100E+00  2.48200E+01  6.94960E-02  0.00000E+00  3.75683E+01   1.514      3.3650E+04   12.75              
  3.10600E+00  2.63000E+01  3.15600E-02  0.00000E+00  4.01497E+01   1.527      1.9258E+05   13.85              
  3.13200E+00  2.73700E+01  3.28440E-02  0.00000E+00  4.28343E+01   1.565      2.2169E+05   15.46              
  3.15700E+00  2.91900E+01  3.21090E-02  0.00000E+00  4.54157E+01   1.556      2.5536E+05   16.23              
  3.18200E+00  3.08600E+01  3.39460E-02  0.00000E+00  4.79971E+01   1.555      2.5486E+05   17.14              
  3.20700E+00  3.29900E+01  3.62890E-02  0.00000E+00  5.05785E+01   1.533      2.3491E+05   17.59              
  3.23200E+00  3.35400E+01  3.68940E-02  0.00000E+00  5.31598E+01   1.585      2.8280E+05   19.62              
  3.25800E+00  3.45200E+01  3.79720E-02  0.00000E+00  5.58445E+01   1.618      3.1538E+05   21.32              
  3.28300E+00  3.84700E+01  3.84700E-02  0.00000E+00  5.84259E+01   1.519      2.6909E+05   19.96              
  3.30700E+00  4.44500E+01  1.37800E-01  0.00000E+00  6.09040E+01   1.370      1.4258E+04   16.45              
  3.33300E+00  4.62900E+01  1.34240E-01  0.00000E+00  6.35886E+01   1.374      1.6606E+04   17.30              
  3.35800E+00  4.64700E+01  1.34760E-01  0.00000E+00  6.61700E+01   1.424      2.1370E+04   19.70              
  3.38400E+00  4.43300E+01  1.28560E-01  0.00000E+00  6.88547E+01   1.553      3.6391E+04   24.52              
  3.40800E+00  4.43500E+01  1.28620E-01  0.00000E+00  7.13328E+01   1.608      4.4011E+04   26.98              
  3.43400E+00  4.51100E+01  1.30820E-01  0.00000E+00  7.40174E+01   1.641      4.8828E+04   28.91              
  3.45900E+00  4.59400E+01  1.33230E-01  0.00000E+00  7.65988E+01   1.667      5.2955E+04   30.66              
  3.48400E+00  5.16000E+01  1.39320E-01  0.00000E+00  7.91802E+01   1.535      3.9189E+04   27.58              
  3.50900E+00  5.75200E+01  1.55300E-01  0.00000E+00  8.17616E+01   1.421      2.4366E+04   24.24              
  3.53500E+00  6.18200E+01  1.36000E-01  0.00000E+00  8.44463E+01   1.366      2.7679E+04   22.63              
  3.56000E+00  6.19800E+01  1.36360E-01  0.00000E+00  8.70276E+01   1.404      3.3741E+04   25.05              
  3.58400E+00  5.93000E+01  1.30460E-01  0.00000E+00  8.95057E+01   1.509      5.3607E+04   30.21              
  3.61100E+00  5.94300E+01  1.30750E-01  0.00000E+00  9.22937E+01   1.553      6.3175E+04   32.86              
  3.63600E+00  6.03600E+01  1.32790E-01  0.00000E+00  9.48750E+01   1.572      6.7559E+04   34.52              
  3.66100E+00  6.21000E+01  1.36620E-01  0.00000E+00  9.74564E+01   1.569      6.6974E+04   35.36              
  3.68500E+00  6.98100E+01  1.53580E-01  0.00000E+00  9.99345E+01   1.432      3.8474E+04   30.12              
  3.71000E+00  7.83500E+01  1.72370E-01  0.00000E+00  1.02516E+02   1.308      1.9656E+04   24.17              
  3.73600E+00  7.88000E+01  1.73360E-01  0.00000E+00  1.05201E+02   1.335      2.3192E+04   26.40              
  3.76100E+00  7.27000E+01  1.59940E-01  0.00000E+00  1.07782E+02   1.483      4.8112E+04   35.08              
  3.78600E+00  7.28400E+01  1.60250E-01  0.00000E+00  1.10363E+02   1.515      5.4829E+04   37.52              
  3.81200E+00  7.34200E+01  1.61520E-01  0.00000E+00  1.13048E+02   1.540      6.0194E+04   39.63              
  3.83700E+00  7.71800E+01  1.69800E-01  0.00000E+00  1.15629E+02   1.498      5.1275E+04   38.45              
  3.86200E+00  8.00300E+01  1.76070E-01  0.00000E+00  1.18211E+02   1.477      4.7024E+04   38.18              
  3.88700E+00  8.46800E+01  1.86300E-01  0.00000E+00  1.20792E+02   1.426      3.7573E+04   36.11              
  3.91300E+00  8.29000E+01  1.82380E-01  0.00000E+00  1.23477E+02   1.489      4.9500E+04   40.58              
  3.93800E+00  8.19700E+01  1.80330E-01  0.00000E+00  1.26058E+02   1.538      5.9773E+04   44.09              
  3.96200E+00  8.16100E+01  1.79540E-01  0.00000E+00  1.28536E+02   1.575      6.8314E+04   46.93              
  3.98800E+00  8.31200E+01  1.82860E-01  0.00000E+00  1.31221E+02   1.579      6.9194E+04   48.10              
  4.01400E+00  8.55400E+01  1.88190E-01  0.00000E+00  1.34428E+02   1.572      6.7485E+04   48.89              
  4.03800E+00  8.77700E+01  1.93090E-01  0.00000E+00  1.37801E+02   1.570      6.7138E+04   50.03              
  4.06300E+00  9.16000E+01  2.01520E-01  0.00000E+00  1.41316E+02   1.543      6.0862E+04   49.72              
  4.08800E+00  9.28600E+01  2.04290E-01  0.00000E+00  1.44830E+02   1.560      6.4715E+04   51.97              
  4.11200E+00  9.18900E+01  2.02160E-01  0.00000E+00  1.48203E+02   1.613      7.7595E+04   56.31              
  4.13900E+00  9.25800E+01  2.03680E-01  0.00000E+00  1.51999E+02   1.642      8.5103E+04   59.42              
  4.16300E+00  9.55900E+01  2.10300E-01  0.00000E+00  1.55372E+02   1.625      8.0810E+04   59.78              
  4.19000E+00  9.93200E+01  2.18500E-01  0.00000E+00  1.59167E+02   1.603      7.5022E+04   59.85              
#
# Average deviation:                                                2.989      3.3809E+05   19.89    
#
# Full reference:
#R.L.Hershberger, F.Gabbard
#Jour. Bulletin of the American Physical Society Vol.29, p.1056(ED7), 1984
#Comparison of measured and calculated (p,n) reaction rates for selected targets with 51<=A<=75
#
# Quality information:
#
# Quality  C0738002 : T2
# Date     C0738002 : 05-01-2018
# Reaction C0738002 : NP:   87 E-range:   2.04    -   4.19     MeV 29-CU-65(P,N)30-ZN-65,,SIG          pdf: y
# Paper    C0738002 : R.L.Hershberger+ Jour. Bulletin of the American Physical Society Vol.29, p.1056(ED7), 1984 Comparison of measured and calculated (p,n) react
# Action   C0738002 : 
# Comment  C0738002 : Evaluation        N=    86 F=   2.99     chi-2=  3.381E+05 D=   19.9     mb T=   58.1     mb E=   37.7     K1=  2.99     K2= 3.565E+19
# Comment  C0738002 : TALYS             N=    86 F=   2.99     chi-2=  3.381E+05 D=   19.9     mb T=   58.1     mb E=   37.7     K1=  2.99     K2= 3.565E+19
# Comment  C0738002 : cendl3.1          N=     0 F=   0.00     chi-2=   0.00     D=   0.00     mb T=   0.00     mb E=   37.7     K1=  0.00     K2=  0.00
# Comment  C0738002 : eaf.2010          N=     0 F=   0.00     chi-2=   0.00     D=   0.00     mb T=   0.00     mb E=   37.7     K1=  0.00     K2=  0.00
# Comment  C0738002 : endfb8.0          N=     0 F=   0.00     chi-2=   0.00     D=   0.00     mb T=   0.00     mb E=   37.7     K1=  0.00     K2=  0.00
# Comment  C0738002 : irdff1.0          N=     0 F=   0.00     chi-2=   0.00     D=   0.00     mb T=   0.00     mb E=   37.7     K1=  0.00     K2=  0.00
# Comment  C0738002 : jeff3.3           N=     0 F=   0.00     chi-2=   0.00     D=   0.00     mb T=   0.00     mb E=   37.7     K1=  0.00     K2=  0.00
# Comment  C0738002 : jendl4.0          N=     0 F=   0.00     chi-2=   0.00     D=   0.00     mb T=   0.00     mb E=   37.7     K1=  0.00     K2=  0.00
# Comment  C0738002 : tendl.2017        N=     0 F=   0.00     chi-2=   0.00     D=   0.00     mb T=   0.00     mb E=   37.7     K1=  0.00     K2=  0.00
