# Target Z    :  29
# Target A    :  65
# Target state:  
# Projectile  : p
# Reaction    : (p,n')    
# Final state :  
# Quantity    : Cross section
# Frame       : C
# MF          :    3
# MT          :    4
# X4 ID       : D6100003 
# X4 code     : 29-CU-65(P,N)30-ZN-65,,SIG
# Author      : Saini                    
# Year        : 1983
# Data points :    247
#    E(MeV)       xs(mb)      dxs(mb)     dE(MeV)      Evaluation  C/E(F)      Chi-2     Delta(mb)
  2.29200E+00  2.29000E+00  0.00000E+00  0.00000E+00  8.52774E+00   3.724       0.000       6.238              
  2.30500E+00  1.32000E+00  0.00000E+00  0.00000E+00  8.90740E+00   6.748       0.000       7.587              
  2.31000E+00  2.28900E+00  0.00000E+00  0.00000E+00  9.05342E+00   3.955       0.000       6.764              
  2.31700E+00  2.77300E+00  0.00000E+00  0.00000E+00  9.25786E+00   3.339       0.000       6.485              
  2.33500E+00  2.61500E+00  0.00000E+00  0.00000E+00  9.78354E+00   3.741       0.000       7.169              
  2.35100E+00  2.93900E+00  0.00000E+00  0.00000E+00  1.02508E+01   3.488       0.000       7.312              
  2.36100E+00  3.42300E+00  0.00000E+00  0.00000E+00  1.05429E+01   3.080       0.000       7.120              
  2.37200E+00  4.06800E+00  0.00000E+00  0.00000E+00  1.08641E+01   2.671       0.000       6.796              
  2.38600E+00  4.87500E+00  0.00000E+00  0.00000E+00  1.12730E+01   2.312       0.000       6.398              
  2.40200E+00  4.39500E+00  0.00000E+00  0.00000E+00  1.17402E+01   2.671       0.000       7.345              
  2.42100E+00  3.75300E+00  0.00000E+00  0.00000E+00  1.22951E+01   3.276       0.000       8.542              
  2.45300E+00  6.65500E+00  0.00000E+00  0.00000E+00  1.32297E+01   1.988       0.000       6.575              
  2.45800E+00  5.04600E+00  0.00000E+00  0.00000E+00  1.33757E+01   2.651       0.000       8.330              
  2.46000E+00  3.59800E+00  0.00000E+00  0.00000E+00  1.34341E+01   3.734       0.000       9.836              
  2.47400E+00  5.85300E+00  0.00000E+00  0.00000E+00  1.38430E+01   2.365       0.000       7.990              
  2.48300E+00  4.40600E+00  0.00000E+00  0.00000E+00  1.41058E+01   3.202       0.000       9.700              
  2.50900E+00  7.79000E+00  0.00000E+00  0.00000E+00  1.48651E+01   1.908       0.000       7.075              
  2.52200E+00  5.86000E+00  0.00000E+00  0.00000E+00  1.52448E+01   2.602       0.000       9.385              
  2.52300E+00  8.75800E+00  0.00000E+00  0.00000E+00  1.52740E+01   1.744       0.000       6.516              
  2.53300E+00  4.25200E+00  0.00000E+00  0.00000E+00  1.55661E+01   3.661       0.000       11.31              
  2.53800E+00  6.02300E+00  0.00000E+00  0.00000E+00  1.57121E+01   2.609       0.000       9.689              
  2.54500E+00  7.15100E+00  0.00000E+00  0.00000E+00  1.59165E+01   2.226       0.000       8.766              
  2.55300E+00  7.95700E+00  0.00000E+00  0.00000E+00  1.61501E+01   2.030       0.000       8.193              
  2.56400E+00  6.51000E+00  0.00000E+00  0.00000E+00  1.64714E+01   2.530       0.000       9.961              
  2.56400E+00  8.92400E+00  0.00000E+00  0.00000E+00  1.64714E+01   1.846       0.000       7.547              
  2.56900E+00  9.89100E+00  0.00000E+00  0.00000E+00  1.66174E+01   1.680       0.000       6.726              
  2.58200E+00  6.51200E+00  0.00000E+00  0.00000E+00  1.69971E+01   2.610       0.000       10.49              
  2.59200E+00  8.76700E+00  0.00000E+00  0.00000E+00  1.72891E+01   1.972       0.000       8.522              
  2.60700E+00  7.48200E+00  0.00000E+00  0.00000E+00  1.77272E+01   2.369       0.000       10.25              
  2.62100E+00  7.48400E+00  0.00000E+00  0.00000E+00  1.81361E+01   2.423       0.000       10.65              
  2.63300E+00  7.00200E+00  0.00000E+00  0.00000E+00  1.84865E+01   2.640       0.000       11.48              
  2.64000E+00  7.80800E+00  0.00000E+00  0.00000E+00  1.86909E+01   2.394       0.000       10.88              
  2.64900E+00  7.48800E+00  0.00000E+00  0.00000E+00  1.89538E+01   2.531       0.000       11.47              
  2.65500E+00  6.36200E+00  0.00000E+00  0.00000E+00  1.91290E+01   3.007       0.000       12.77              
  2.66800E+00  9.90500E+00  0.00000E+00  0.00000E+00  1.95087E+01   1.970       0.000       9.604              
  2.68100E+00  7.97500E+00  0.00000E+00  0.00000E+00  1.98883E+01   2.494       0.000       11.91              
  2.68500E+00  1.23210E+01  0.00000E+00  0.00000E+00  2.00051E+01   1.624       0.000       7.684              
  2.69500E+00  1.00700E+01  0.00000E+00  0.00000E+00  2.02972E+01   2.016       0.000       10.23              
  2.70200E+00  8.30000E+00  0.00000E+00  0.00000E+00  2.05016E+01   2.470       0.000       12.20              
  2.71300E+00  8.94500E+00  0.00000E+00  0.00000E+00  2.08229E+01   2.328       0.000       11.88              
  2.72300E+00  8.78600E+00  0.00000E+00  0.00000E+00  2.11149E+01   2.403       0.000       12.33              
  2.73000E+00  8.94800E+00  0.00000E+00  0.00000E+00  2.13194E+01   2.383       0.000       12.37              
  2.73900E+00  1.10410E+01  0.00000E+00  0.00000E+00  2.15822E+01   1.955       0.000       10.54              
  2.75300E+00  9.75600E+00  0.00000E+00  0.00000E+00  2.19911E+01   2.254       0.000       12.24              
  2.76200E+00  1.08840E+01  0.00000E+00  0.00000E+00  2.22539E+01   2.045       0.000       11.37              
  2.76900E+00  9.91900E+00  0.00000E+00  0.00000E+00  2.24583E+01   2.264       0.000       12.54              
  2.77800E+00  1.12080E+01  0.00000E+00  0.00000E+00  2.27212E+01   2.027       0.000       11.51              
  2.78100E+00  1.42670E+01  0.00000E+00  0.00000E+00  2.28088E+01   1.599       0.000       8.542              
  2.78800E+00  1.31410E+01  0.00000E+00  0.00000E+00  2.30132E+01   1.751       0.000       9.872              
  2.79700E+00  1.20150E+01  0.00000E+00  0.00000E+00  2.32761E+01   1.937       0.000       11.26              
  2.80400E+00  1.13720E+01  0.00000E+00  0.00000E+00  2.34805E+01   2.065       0.000       12.11              
  2.81100E+00  1.25000E+01  0.00000E+00  0.00000E+00  2.36849E+01   1.895       0.000       11.18              
  2.81600E+00  1.44320E+01  0.00000E+00  0.00000E+00  2.38310E+01   1.651       0.000       9.399              
  2.82300E+00  1.34680E+01  0.00000E+00  0.00000E+00  2.40354E+01   1.785       0.000       10.57              
  2.83000E+00  1.47560E+01  0.00000E+00  0.00000E+00  2.42398E+01   1.643       0.000       9.484              
  2.84100E+00  2.36110E+01  0.00000E+00  0.00000E+00  2.45611E+01   1.040       0.000      0.9501              
  2.84300E+00  2.05530E+01  0.00000E+00  0.00000E+00  2.46195E+01   1.198       0.000       4.066              
  2.85000E+00  1.31500E+01  0.00000E+00  0.00000E+00  2.48239E+01   1.888       0.000       11.67              
  2.85200E+00  2.21640E+01  0.00000E+00  0.00000E+00  2.48823E+01   1.123       0.000       2.718              
  2.86000E+00  1.62090E+01  0.00000E+00  0.00000E+00  2.51160E+01   1.550       0.000       8.907              
  2.86400E+00  1.29910E+01  0.00000E+00  0.00000E+00  2.52328E+01   1.942       0.000       12.24              
  2.87200E+00  1.62110E+01  0.00000E+00  0.00000E+00  2.54664E+01   1.571       0.000       9.255              
  2.87500E+00  1.28310E+01  0.00000E+00  0.00000E+00  2.55540E+01   1.992       0.000       12.72              
  2.87800E+00  1.42800E+01  0.00000E+00  0.00000E+00  2.56416E+01   1.796       0.000       11.36              
  2.88500E+00  1.62130E+01  0.00000E+00  0.00000E+00  2.58461E+01   1.594       0.000       9.633              
  2.89400E+00  1.46040E+01  0.00000E+00  0.00000E+00  2.61089E+01   1.788       0.000       11.50              
  2.90200E+00  1.70200E+01  0.00000E+00  0.00000E+00  2.63425E+01   1.548       0.000       9.323              
  2.90700E+00  2.08840E+01  0.00000E+00  0.00000E+00  2.64886E+01   1.268       0.000       5.605              
  2.90800E+00  2.24930E+01  0.00000E+00  0.00000E+00  2.65178E+01   1.179       0.000       4.025              
  2.91600E+00  2.00800E+01  0.00000E+00  0.00000E+00  2.67514E+01   1.332       0.000       6.671              
  2.92200E+00  3.29580E+01  0.00000E+00  0.00000E+00  2.69266E+01  0.8170       0.000       6.031              
  2.92500E+00  2.81290E+01  0.00000E+00  0.00000E+00  2.70143E+01  0.9604       0.000       1.115              
  2.93500E+00  2.16920E+01  0.00000E+00  0.00000E+00  2.73063E+01   1.259       0.000       5.614              
  2.93600E+00  2.63600E+01  0.00000E+00  0.00000E+00  2.73355E+01   1.037       0.000      0.9755              
  2.93800E+00  1.39670E+01  0.00000E+00  0.00000E+00  2.73939E+01   1.961       0.000       13.43              
  2.94300E+00  1.86350E+01  0.00000E+00  0.00000E+00  2.75399E+01   1.478       0.000       8.905              
  2.94700E+00  1.52560E+01  0.00000E+00  0.00000E+00  2.76568E+01   1.813       0.000       12.40              
  2.95700E+00  1.65450E+01  0.00000E+00  0.00000E+00  2.79488E+01   1.689       0.000       11.40              
  2.96400E+00  1.78330E+01  0.00000E+00  0.00000E+00  2.81532E+01   1.579       0.000       10.32              
  2.97000E+00  1.65470E+01  0.00000E+00  0.00000E+00  2.83285E+01   1.712       0.000       11.78              
  2.97600E+00  1.26850E+01  0.00000E+00  0.00000E+00  2.85037E+01   2.247       0.000       15.82              
  2.97900E+00  1.39730E+01  0.00000E+00  0.00000E+00  2.85913E+01   2.046       0.000       14.62              
  2.98600E+00  1.60660E+01  0.00000E+00  0.00000E+00  2.87957E+01   1.792       0.000       12.73              
  2.99800E+00  1.51020E+01  0.00000E+00  0.00000E+00  2.91462E+01   1.930       0.000       14.04              
  3.00800E+00  1.88050E+01  0.00000E+00  0.00000E+00  3.00306E+01   1.597       0.000       11.23              
  3.01900E+00  1.70360E+01  0.00000E+00  0.00000E+00  3.11665E+01   1.829       0.000       14.13              
  3.03000E+00  1.55890E+01  0.00000E+00  0.00000E+00  3.23023E+01   2.072       0.000       16.71              
  3.04400E+00  1.86500E+01  0.00000E+00  0.00000E+00  3.37478E+01   1.810       0.000       15.10              
  3.05800E+00  1.73640E+01  0.00000E+00  0.00000E+00  3.51934E+01   2.027       0.000       17.83              
  3.06500E+00  2.01010E+01  0.00000E+00  0.00000E+00  3.59162E+01   1.787       0.000       15.82              
  3.07800E+00  2.41270E+01  0.00000E+00  0.00000E+00  3.72585E+01   1.544       0.000       13.13              
  3.09300E+00  1.93000E+01  0.00000E+00  0.00000E+00  3.88073E+01   2.011       0.000       19.51              
  3.10500E+00  2.18770E+01  0.00000E+00  0.00000E+00  4.00464E+01   1.831       0.000       18.17              
  3.12500E+00  1.81780E+01  0.00000E+00  0.00000E+00  4.21115E+01   2.317       0.000       23.93              
  3.13200E+00  1.91450E+01  0.00000E+00  0.00000E+00  4.28343E+01   2.237       0.000       23.69              
  3.14400E+00  2.23660E+01  0.00000E+00  0.00000E+00  4.40734E+01   1.971       0.000       21.71              
  3.15200E+00  2.42980E+01  0.00000E+00  0.00000E+00  4.48994E+01   1.848       0.000       20.60              
  3.16100E+00  2.68750E+01  0.00000E+00  0.00000E+00  4.58287E+01   1.705       0.000       18.95              
  3.16500E+00  2.26910E+01  0.00000E+00  0.00000E+00  4.62417E+01   2.038       0.000       23.55              
  3.17200E+00  2.43010E+01  0.00000E+00  0.00000E+00  4.69645E+01   1.933       0.000       22.66              
  3.17600E+00  2.12440E+01  0.00000E+00  0.00000E+00  4.73775E+01   2.230       0.000       26.13              
  3.18600E+00  2.38200E+01  0.00000E+00  0.00000E+00  4.84101E+01   2.032       0.000       24.59              
  3.18900E+00  2.62350E+01  0.00000E+00  0.00000E+00  4.87199E+01   1.857       0.000       22.48              
  3.19400E+00  2.96160E+01  0.00000E+00  0.00000E+00  4.92361E+01   1.662       0.000       19.62              
  3.20700E+00  2.51110E+01  0.00000E+00  0.00000E+00  5.05785E+01   2.014       0.000       25.47              
  3.23500E+00  2.89780E+01  0.00000E+00  0.00000E+00  5.34696E+01   1.845       0.000       24.49              
  3.24400E+00  2.80130E+01  0.00000E+00  0.00000E+00  5.43989E+01   1.942       0.000       26.39              
  3.25100E+00  2.67270E+01  0.00000E+00  0.00000E+00  5.51217E+01   2.062       0.000       28.39              
  3.25300E+00  2.56000E+01  0.00000E+00  0.00000E+00  5.53282E+01   2.161       0.000       29.73              
  3.25800E+00  2.93030E+01  0.00000E+00  0.00000E+00  5.58445E+01   1.906       0.000       26.54              
  3.26000E+00  2.73720E+01  0.00000E+00  0.00000E+00  5.60510E+01   2.048       0.000       28.68              
  3.27000E+00  3.65480E+01  0.00000E+00  0.00000E+00  5.70836E+01   1.562       0.000       20.54              
  3.27800E+00  3.42960E+01  0.00000E+00  0.00000E+00  5.79096E+01   1.689       0.000       23.61              
  3.29200E+00  3.34930E+01  0.00000E+00  0.00000E+00  5.93552E+01   1.772       0.000       25.86              
  3.29800E+00  3.14010E+01  0.00000E+00  0.00000E+00  5.99747E+01   1.910       0.000       28.57              
  3.31000E+00  4.95910E+01  0.00000E+00  0.00000E+00  6.12138E+01   1.234       0.000       11.62              
  3.31500E+00  4.17050E+01  0.00000E+00  0.00000E+00  6.17301E+01   1.480       0.000       20.03              
  3.31800E+00  3.57500E+01  0.00000E+00  0.00000E+00  6.20398E+01   1.735       0.000       26.29              
  3.32500E+00  2.97950E+01  0.00000E+00  0.00000E+00  6.27626E+01   2.106       0.000       32.97              
  3.34100E+00  3.67190E+01  0.00000E+00  0.00000E+00  6.44147E+01   1.754       0.000       27.70              
  3.34500E+00  2.85110E+01  0.00000E+00  0.00000E+00  6.48277E+01   2.274       0.000       36.32              
  3.35100E+00  3.31790E+01  0.00000E+00  0.00000E+00  6.54473E+01   1.973       0.000       32.27              
  3.36000E+00  2.99610E+01  0.00000E+00  0.00000E+00  6.63765E+01   2.215       0.000       36.42              
  3.36800E+00  3.52740E+01  0.00000E+00  0.00000E+00  6.72026E+01   1.905       0.000       31.93              
  3.37200E+00  3.35040E+01  0.00000E+00  0.00000E+00  6.76156E+01   2.018       0.000       34.11              
  3.37600E+00  3.18950E+01  0.00000E+00  0.00000E+00  6.80286E+01   2.133       0.000       36.13              
  3.38400E+00  3.36670E+01  0.00000E+00  0.00000E+00  6.88547E+01   2.045       0.000       35.19              
  3.38500E+00  2.98040E+01  0.00000E+00  0.00000E+00  6.89579E+01   2.314       0.000       39.15              
  3.39100E+00  3.55990E+01  0.00000E+00  0.00000E+00  6.95775E+01   1.954       0.000       33.98              
  3.39500E+00  3.22200E+01  0.00000E+00  0.00000E+00  6.99905E+01   2.172       0.000       37.77              
  3.40100E+00  2.98060E+01  0.00000E+00  0.00000E+00  7.06100E+01   2.369       0.000       40.80              
  3.40900E+00  3.39920E+01  0.00000E+00  0.00000E+00  7.14361E+01   2.102       0.000       37.44              
  3.41500E+00  3.25440E+01  0.00000E+00  0.00000E+00  7.20556E+01   2.214       0.000       39.51              
  3.42100E+00  2.93260E+01  0.00000E+00  0.00000E+00  7.26751E+01   2.478       0.000       43.35              
  3.42900E+00  3.17420E+01  0.00000E+00  0.00000E+00  7.35012E+01   2.316       0.000       41.76              
  3.43200E+00  3.60880E+01  0.00000E+00  0.00000E+00  7.38109E+01   2.045       0.000       37.72              
  3.43800E+00  3.97910E+01  0.00000E+00  0.00000E+00  7.44305E+01   1.871       0.000       34.64              
  3.44200E+00  3.88260E+01  0.00000E+00  0.00000E+00  7.48435E+01   1.928       0.000       36.02              
  3.44600E+00  3.62510E+01  0.00000E+00  0.00000E+00  7.52565E+01   2.076       0.000       39.01              
  3.45000E+00  3.25490E+01  0.00000E+00  0.00000E+00  7.56695E+01   2.325       0.000       43.12              
  3.45300E+00  3.48030E+01  0.00000E+00  0.00000E+00  7.59793E+01   2.183       0.000       41.18              
  3.46200E+00  3.67360E+01  0.00000E+00  0.00000E+00  7.69086E+01   2.094       0.000       40.17              
  3.46500E+00  3.81850E+01  0.00000E+00  0.00000E+00  7.72184E+01   2.022       0.000       39.03              
  3.47000E+00  3.96340E+01  0.00000E+00  0.00000E+00  7.77346E+01   1.961       0.000       38.10              
  3.47600E+00  4.28540E+01  0.00000E+00  0.00000E+00  7.83542E+01   1.828       0.000       35.50              
  3.48100E+00  5.44440E+01  0.00000E+00  0.00000E+00  7.88704E+01   1.449       0.000       24.43              
  3.48700E+00  5.95960E+01  0.00000E+00  0.00000E+00  7.94900E+01   1.334       0.000       19.89              
  3.49300E+00  4.94560E+01  0.00000E+00  0.00000E+00  8.01095E+01   1.620       0.000       30.65              
  3.49800E+00  4.07650E+01  0.00000E+00  0.00000E+00  8.06258E+01   1.978       0.000       39.86              
  3.50900E+00  4.81710E+01  0.00000E+00  0.00000E+00  8.17616E+01   1.697       0.000       33.59              
  3.51300E+00  4.52740E+01  0.00000E+00  0.00000E+00  8.21746E+01   1.815       0.000       36.90              
  3.51500E+00  4.31820E+01  0.00000E+00  0.00000E+00  8.23811E+01   1.908       0.000       39.20              
  3.52000E+00  4.72070E+01  0.00000E+00  0.00000E+00  8.28974E+01   1.756       0.000       35.69              
  3.52900E+00  4.38280E+01  0.00000E+00  0.00000E+00  8.38267E+01   1.913       0.000       40.00              
  3.53000E+00  4.07700E+01  0.00000E+00  0.00000E+00  8.39300E+01   2.059       0.000       43.16              
  3.53500E+00  4.27020E+01  0.00000E+00  0.00000E+00  8.44463E+01   1.978       0.000       41.74              
  3.53900E+00  4.04490E+01  0.00000E+00  0.00000E+00  8.48593E+01   2.098       0.000       44.41              
  3.54900E+00  4.25430E+01  0.00000E+00  0.00000E+00  8.58918E+01   2.019       0.000       43.35              
  3.55200E+00  3.81970E+01  0.00000E+00  0.00000E+00  8.62016E+01   2.257       0.000       48.00              
  3.56300E+00  4.52810E+01  0.00000E+00  0.00000E+00  8.73374E+01   1.929       0.000       42.06              
  3.57200E+00  4.20630E+01  0.00000E+00  0.00000E+00  8.82667E+01   2.098       0.000       46.20              
  3.57700E+00  4.41560E+01  0.00000E+00  0.00000E+00  8.87830E+01   2.011       0.000       44.63              
  3.58300E+00  4.22260E+01  0.00000E+00  0.00000E+00  8.94025E+01   2.117       0.000       47.18              
  3.59100E+00  4.39970E+01  0.00000E+00  0.00000E+00  9.02286E+01   2.051       0.000       46.23              
  3.59400E+00  4.70560E+01  0.00000E+00  0.00000E+00  9.05383E+01   1.924       0.000       43.48              
  3.59800E+00  4.56080E+01  0.00000E+00  0.00000E+00  9.09513E+01   1.994       0.000       45.34              
  3.61200E+00  4.65760E+01  0.00000E+00  0.00000E+00  9.23969E+01   1.984       0.000       45.82              
  3.61600E+00  4.27130E+01  0.00000E+00  0.00000E+00  9.28099E+01   2.173       0.000       50.10              
  3.62500E+00  5.15670E+01  0.00000E+00  0.00000E+00  9.37392E+01   1.818       0.000       42.17              
  3.62700E+00  4.94750E+01  0.00000E+00  0.00000E+00  9.39457E+01   1.899       0.000       44.47              
  3.63300E+00  4.70610E+01  0.00000E+00  0.00000E+00  9.45653E+01   2.009       0.000       47.50              
  3.63900E+00  5.23740E+01  0.00000E+00  0.00000E+00  9.51848E+01   1.817       0.000       42.81              
  3.64300E+00  4.25560E+01  0.00000E+00  0.00000E+00  9.55978E+01   2.246       0.000       53.04              
  3.64900E+00  4.88340E+01  0.00000E+00  0.00000E+00  9.62174E+01   1.970       0.000       47.38              
  3.65400E+00  5.06060E+01  0.00000E+00  0.00000E+00  9.67336E+01   1.912       0.000       46.13              
  3.66200E+00  5.18940E+01  0.00000E+00  0.00000E+00  9.75597E+01   1.880       0.000       45.67              
  3.66300E+00  5.60790E+01  0.00000E+00  0.00000E+00  9.76629E+01   1.742       0.000       41.58              
  3.67000E+00  5.88170E+01  0.00000E+00  0.00000E+00  9.83857E+01   1.673       0.000       39.57              
  3.67200E+00  6.65430E+01  0.00000E+00  0.00000E+00  9.85922E+01   1.482       0.000       32.05              
  3.67900E+00  6.42910E+01  0.00000E+00  0.00000E+00  9.93150E+01   1.545       0.000       35.02              
  3.68400E+00  6.63840E+01  0.00000E+00  0.00000E+00  9.98313E+01   1.504       0.000       33.45              
  3.68900E+00  6.78330E+01  0.00000E+00  0.00000E+00  1.00348E+02   1.479       0.000       32.51              
  3.69700E+00  7.15360E+01  0.00000E+00  0.00000E+00  1.01174E+02   1.414       0.000       29.64              
  3.70000E+00  7.50780E+01  0.00000E+00  0.00000E+00  1.01483E+02   1.352       0.000       26.41              
  3.70100E+00  5.28660E+01  0.00000E+00  0.00000E+00  1.01587E+02   1.922       0.000       48.72              
  3.70400E+00  4.62670E+01  0.00000E+00  0.00000E+00  1.01896E+02   2.202       0.000       55.63              
  3.71400E+00  5.07750E+01  0.00000E+00  0.00000E+00  1.02929E+02   2.027       0.000       52.15              
  3.71500E+00  5.54430E+01  0.00000E+00  0.00000E+00  1.03032E+02   1.858       0.000       47.59              
  3.71900E+00  5.14190E+01  0.00000E+00  0.00000E+00  1.03445E+02   2.012       0.000       52.03              
  3.72600E+00  4.41770E+01  0.00000E+00  0.00000E+00  1.04168E+02   2.358       0.000       59.99              
  3.73500E+00  5.22270E+01  0.00000E+00  0.00000E+00  1.05097E+02   2.012       0.000       52.87              
  3.74400E+00  4.28920E+01  0.00000E+00  0.00000E+00  1.06027E+02   2.472       0.000       63.13              
  3.74500E+00  4.64330E+01  0.00000E+00  0.00000E+00  1.06130E+02   2.286       0.000       59.70              
  3.75300E+00  5.09410E+01  0.00000E+00  0.00000E+00  1.06956E+02   2.100       0.000       56.01              
  3.75900E+00  6.41410E+01  0.00000E+00  0.00000E+00  1.07575E+02   1.677       0.000       43.43              
  3.76200E+00  5.93130E+01  0.00000E+00  0.00000E+00  1.07885E+02   1.819       0.000       48.57              
  3.77000E+00  6.20500E+01  0.00000E+00  0.00000E+00  1.08711E+02   1.752       0.000       46.66              
  3.77900E+00  5.22330E+01  0.00000E+00  0.00000E+00  1.09641E+02   2.099       0.000       57.41              
  3.78400E+00  5.36820E+01  0.00000E+00  0.00000E+00  1.10157E+02   2.052       0.000       56.47              
  3.78800E+00  5.97990E+01  0.00000E+00  0.00000E+00  1.10570E+02   1.849       0.000       50.77              
  3.80100E+00  5.78690E+01  0.00000E+00  0.00000E+00  1.11912E+02   1.934       0.000       54.04              
  3.80300E+00  6.49520E+01  0.00000E+00  0.00000E+00  1.12119E+02   1.726       0.000       47.17              
  3.80700E+00  5.59390E+01  0.00000E+00  0.00000E+00  1.12532E+02   2.012       0.000       56.59              
  3.81800E+00  6.14130E+01  0.00000E+00  0.00000E+00  1.13668E+02   1.851       0.000       52.25              
  3.82100E+00  5.61020E+01  0.00000E+00  0.00000E+00  1.13977E+02   2.032       0.000       57.88              
  3.82900E+00  5.86780E+01  0.00000E+00  0.00000E+00  1.14803E+02   1.956       0.000       56.13              
  3.83700E+00  6.57620E+01  0.00000E+00  0.00000E+00  1.15629E+02   1.758       0.000       49.87              
  3.84000E+00  5.62650E+01  0.00000E+00  0.00000E+00  1.15939E+02   2.061       0.000       59.67              
  3.84600E+00  6.17390E+01  0.00000E+00  0.00000E+00  1.16559E+02   1.888       0.000       54.82              
  3.85100E+00  6.43150E+01  0.00000E+00  0.00000E+00  1.17075E+02   1.820       0.000       52.76              
  3.85600E+00  6.73740E+01  0.00000E+00  0.00000E+00  1.17591E+02   1.745       0.000       50.22              
  3.86000E+00  7.22030E+01  0.00000E+00  0.00000E+00  1.18004E+02   1.634       0.000       45.80              
  3.86300E+00  5.77170E+01  0.00000E+00  0.00000E+00  1.18314E+02   2.050       0.000       60.60              
  3.87200E+00  6.64100E+01  0.00000E+00  0.00000E+00  1.19243E+02   1.796       0.000       52.83              
  3.87300E+00  6.19040E+01  0.00000E+00  0.00000E+00  1.19347E+02   1.928       0.000       57.44              
  3.88300E+00  5.49840E+01  0.00000E+00  0.00000E+00  1.20379E+02   2.189       0.000       65.40              
  3.89000E+00  5.67550E+01  0.00000E+00  0.00000E+00  1.21102E+02   2.134       0.000       64.35              
  3.89400E+00  5.22490E+01  0.00000E+00  0.00000E+00  1.21515E+02   2.326       0.000       69.27              
  3.90000E+00  5.96540E+01  0.00000E+00  0.00000E+00  1.22134E+02   2.047       0.000       62.48              
  3.91100E+00  5.62750E+01  0.00000E+00  0.00000E+00  1.23270E+02   2.190       0.000       67.00              
  3.91600E+00  6.03000E+01  0.00000E+00  0.00000E+00  1.23787E+02   2.053       0.000       63.49              
  3.92000E+00  6.49680E+01  0.00000E+00  0.00000E+00  1.24200E+02   1.912       0.000       59.23              
  3.92800E+00  6.83500E+01  0.00000E+00  0.00000E+00  1.25026E+02   1.829       0.000       56.68              
  3.93100E+00  6.15900E+01  0.00000E+00  0.00000E+00  1.25335E+02   2.035       0.000       63.75              
  3.94100E+00  6.70640E+01  0.00000E+00  0.00000E+00  1.26368E+02   1.884       0.000       59.30              
  3.94100E+00  5.94990E+01  0.00000E+00  0.00000E+00  1.26368E+02   2.124       0.000       66.87              
  3.95000E+00  6.54550E+01  0.00000E+00  0.00000E+00  1.27297E+02   1.945       0.000       61.84              
  3.95800E+00  5.98230E+01  0.00000E+00  0.00000E+00  1.28123E+02   2.142       0.000       68.30              
  3.96400E+00  6.56180E+01  0.00000E+00  0.00000E+00  1.28743E+02   1.962       0.000       63.12              
  3.97500E+00  6.36880E+01  0.00000E+00  0.00000E+00  1.29879E+02   2.039       0.000       66.19              
  3.98200E+00  6.61040E+01  0.00000E+00  0.00000E+00  1.30601E+02   1.976       0.000       64.50              
  3.98500E+00  5.95050E+01  0.00000E+00  0.00000E+00  1.30911E+02   2.200       0.000       71.41              
  3.99000E+00  6.19200E+01  0.00000E+00  0.00000E+00  1.31427E+02   2.123       0.000       69.51              
  3.99200E+00  6.98070E+01  0.00000E+00  0.00000E+00  1.31634E+02   1.886       0.000       61.83              
  4.00100E+00  6.81990E+01  0.00000E+00  0.00000E+00  1.32601E+02   1.944       0.000       64.40              
  4.00900E+00  7.02930E+01  0.00000E+00  0.00000E+00  1.33725E+02   1.902       0.000       63.43              
  4.01200E+00  6.41770E+01  0.00000E+00  0.00000E+00  1.34147E+02   2.090       0.000       69.97              
  4.02500E+00  9.08980E+01  0.00000E+00  0.00000E+00  1.35974E+02   1.496       0.000       45.08              
  4.03500E+00  8.41390E+01  0.00000E+00  0.00000E+00  1.37380E+02   1.633       0.000       53.24              
  4.05100E+00  8.41410E+01  0.00000E+00  0.00000E+00  1.39629E+02   1.659       0.000       55.49              
  4.07500E+00  8.68810E+01  0.00000E+00  0.00000E+00  1.43002E+02   1.646       0.000       56.12              
  4.08400E+00  7.64200E+01  0.00000E+00  0.00000E+00  1.44267E+02   1.888       0.000       67.85              
  4.09400E+00  8.94590E+01  0.00000E+00  0.00000E+00  1.45673E+02   1.628       0.000       56.21              
  4.10400E+00  9.41280E+01  0.00000E+00  0.00000E+00  1.47079E+02   1.563       0.000       52.95              
  4.11300E+00  9.34850E+01  0.00000E+00  0.00000E+00  1.48344E+02   1.587       0.000       54.86              
  4.12700E+00  9.44530E+01  0.00000E+00  0.00000E+00  1.50312E+02   1.591       0.000       55.86              
  4.13700E+00  9.49370E+01  0.00000E+00  0.00000E+00  1.51717E+02   1.598       0.000       56.78              
#
# Average deviation:                                                2.035       0.000       31.27    
#
# Full reference:
#S.Saini,  G.Singh,  A.Chatterjee,  S.Kailas,  D.D.Karnik, N.Veerabahu,  M.K.Mehta
#
#Jour. Nuclear Physics, Section A Vol.405, p.55, 1983
#Isobaric analogue resonances in the 41K and 65Cu(p,n) reactions
#
# Quality information:
#
# Quality  D6100003 : T2
# Date     D6100003 : 05-01-2018
# Reaction D6100003 : NP:  247 E-range:   2.29    -   4.14     MeV 29-CU-65(P,N)30-ZN-65,,SIG          pdf: y
# Paper    D6100003 : S.Saini+ Jour. Nuclear Physics, Section A Vol.405, p.55, 1983 Isobaric analogue resonances in the 41K and 65Cu(p,n) reactions
# Action   D6100003 : 
# Comment  D6100003 : Evaluation        N=   247 F=   2.04     chi-2=   0.00     D=   31.3     mb T=   66.7     mb E=   35.5     K1=  2.04     K2=  15.7
# Comment  D6100003 : TALYS             N=   247 F=   2.04     chi-2=   0.00     D=   31.3     mb T=   66.7     mb E=   35.5     K1=  2.04     K2=  15.7
# Comment  D6100003 : cendl3.1          N=     0 F=   0.00     chi-2=   0.00     D=   0.00     mb T=   0.00     mb E=   35.5     K1=  0.00     K2=  0.00
# Comment  D6100003 : eaf.2010          N=     0 F=   0.00     chi-2=   0.00     D=   0.00     mb T=   0.00     mb E=   35.5     K1=  0.00     K2=  0.00
# Comment  D6100003 : endfb8.0          N=     0 F=   0.00     chi-2=   0.00     D=   0.00     mb T=   0.00     mb E=   35.5     K1=  0.00     K2=  0.00
# Comment  D6100003 : irdff1.0          N=     0 F=   0.00     chi-2=   0.00     D=   0.00     mb T=   0.00     mb E=   35.5     K1=  0.00     K2=  0.00
# Comment  D6100003 : jeff3.3           N=     0 F=   0.00     chi-2=   0.00     D=   0.00     mb T=   0.00     mb E=   35.5     K1=  0.00     K2=  0.00
# Comment  D6100003 : jendl4.0          N=     0 F=   0.00     chi-2=   0.00     D=   0.00     mb T=   0.00     mb E=   35.5     K1=  0.00     K2=  0.00
# Comment  D6100003 : tendl.2017        N=     0 F=   0.00     chi-2=   0.00     D=   0.00     mb T=   0.00     mb E=   35.5     K1=  0.00     K2=  0.00
