# Target Z    :  29
# Target A    :   0
# Target state:  
# Projectile  : p
# Reaction    : (p,x)
# Final Z     :  30
# Final A     :  65
# Final state : *
# Quantity    : Cross section
# Frame       : L
# MF          :    3
# MT          :  998
# X4 ID       : O0086015 
# X4 code     : 29-CU-0(P,X)30-ZN-65,IND,SIG,,,EXP
# Author      : Barrandon                
# Year        : 1975
# Data points :     33
#    E(MeV)       xs(mb)      dxs(mb)     dE(MeV)      Evaluation  C/E(F)      Chi-2     Delta(mb)
  2.66000E+00  1.31000E+00  1.80000E-01  4.00000E-02
  3.62000E+00  8.63000E+00  1.80000E-01  4.00000E-02
  4.42000E+00  2.35300E+01  1.80000E-01  4.00000E-02
  4.53000E+00  2.22200E+01  1.80000E-01  4.00000E-02
  5.06000E+00  3.52900E+01  1.80000E-01  4.00000E-02
  5.33000E+00  3.66000E+01  1.80000E-01  4.00000E-02
  6.13000E+00  5.22800E+01  1.80000E-01  4.00000E-02
  6.66000E+00  6.14300E+01  1.80000E-01  4.00000E-02
  7.09000E+00  7.00600E+01  1.80000E-01  4.00000E-02
  7.19000E+00  7.18900E+01  1.80000E-01  4.00000E-02
  7.72000E+00  8.05100E+01  1.80000E-01  4.00000E-02
  7.99000E+00  8.62600E+01  1.80000E-01  4.00000E-02
  8.26000E+00  8.96600E+01  1.80000E-01  4.00000E-02
  8.79000E+00  9.54100E+01  1.80000E-01  4.00000E-02
  9.32000E+00  9.89400E+01  1.80000E-01  4.00000E-02
  9.75000E+00  1.07200E+02  1.80000E-01  4.00000E-02
  9.86000E+00  1.08500E+02  1.80000E-01  4.00000E-02
  1.02800E+01  1.12000E+02  1.80000E-01  4.00000E-02
  1.05200E+01  1.13700E+02  1.80000E-01  4.00000E-02
  1.06600E+01  1.09300E+02  1.80000E-01  4.00000E-02
  1.09200E+01  1.11100E+02  1.80000E-01  4.00000E-02
  1.11900E+01  1.09800E+02  1.80000E-01  4.00000E-02
  1.16100E+01  1.03200E+02  1.80000E-01  4.00000E-02
  1.19900E+01  9.67200E+01  1.80000E-01  4.00000E-02
  1.22500E+01  9.14900E+01  1.80000E-01  4.00000E-02
  1.26800E+01  8.23400E+01  1.80000E-01  4.00000E-02
  1.30500E+01  7.52800E+01  1.80000E-01  4.00000E-02
  1.33200E+01  6.92700E+01  1.80000E-01  4.00000E-02
  1.38500E+01  6.27400E+01  1.80000E-01  4.00000E-02
  1.41200E+01  5.56800E+01  1.80000E-01  4.00000E-02
  1.43800E+01  5.09700E+01  1.80000E-01  4.00000E-02
  1.46500E+01  5.03200E+01  1.80000E-01  4.00000E-02
  1.49200E+01  3.92100E+01  1.80000E-01  4.00000E-02
#
# Average deviation:                                                0.000       0.000       0.000    
#
# Full reference:
#J.N.Barrandon, J.L.Debrun, A.Kohn, R.H.Spear
#Jour. Nuclear Instrum.and Methods in Physics Res. Vol.127, p.269, 1975
#A Study of the Main Radioisotopes Obtained by Irradiation of Ti,V,Cr,Fe,Ni,Cu and Zn with Protons From 0 to 20 MeV.
#
#
# Quality information:
#
# Quality  O0086015 :   
# Date     O0086015 : 05-01-2018
# Reaction O0086015 : NP:   33 E-range:   2.66    -   14.9     MeV 29-CU-0(P,X)30-ZN-65,IND,SIG,,,EXP  pdf: n
# Paper    O0086015 : J.N.Barrandon+ Jour. Nuclear Instrum.and Methods in Physics Res. Vol.127, p.269, 1975 A Study of the Main Radioisotopes Obtained by Irradiat
# Action   O0086015 : 
# Comment  O0086015 : 
