# Target Z    :  29
# Target A    :  63
# Target state:  
# Projectile  : p
# Reaction    : (p,xn)
# E-inc       :   26.000 MeV
# Quantity    : Double-differential cross section
# Frame       : L
# MF          :    6
# MT          :  201
# X4 ID       : O0421002 
# X4 code     : 29-CU-63(P,X)0-NN-1,,DA/DE
# Author      : Ahrens                   
# Year        : 1970
# Data points :     40
# E-out(MeV) xs(mb/MeV.sr) dxs(mb/MeV.sr) dE(MeV)      Evaluation  C/E(F)      Chi-2     Delta(mb)
  1.46000E+00  1.79800E-05  5.60000E-07  0.00000E+00  1.80001E+01
  2.44000E+00  1.50400E-05  5.90000E-07  0.00000E+00  1.80001E+01
  3.45000E+00  1.06100E-05  5.50000E-07  0.00000E+00  1.80001E+01
  4.79000E+00  5.43000E-06  3.20000E-07  0.00000E+00  1.80001E+01
  6.85000E+00  2.81000E-06  2.60000E-07  0.00000E+00  1.80001E+01
  8.75000E+00  1.17000E-06  1.90000E-07  0.00000E+00  1.80001E+01
  1.08100E+01  1.10000E-06  2.00000E-07  0.00000E+00  1.80001E+01
  1.38800E+01  8.10000E-07  1.40000E-07  0.00000E+00  1.80001E+01
  1.47000E+00  1.70800E-05  3.80000E-07  0.00000E+00  3.30001E+01
  2.46000E+00  1.37200E-05  4.00000E-07  0.00000E+00  3.30001E+01
  3.46000E+00  9.92000E-06  3.80000E-07  0.00000E+00  3.30001E+01
  4.83000E+00  5.56000E-06  2.20000E-07  0.00000E+00  3.30001E+01
  6.91000E+00  2.31000E-06  1.60000E-07  0.00000E+00  3.30001E+01
  8.91000E+00  1.22000E-06  1.40000E-07  0.00000E+00  3.30001E+01
  1.08500E+01  8.00000E-07  1.30000E-07  0.00000E+00  3.30001E+01
  1.39400E+01  5.70000E-07  9.00000E-08  0.00000E+00  3.30001E+01
  1.45000E+00  1.54700E-05  3.20000E-07  0.00000E+00  9.00000E+01
  2.46000E+00  1.16800E-05  3.20000E-07  0.00000E+00  9.00000E+01
  3.45000E+00  7.65000E-06  2.90000E-07  0.00000E+00  9.00000E+01
  4.77000E+00  3.89000E-06  1.60000E-07  0.00000E+00  9.00000E+01
  6.80000E+00  1.54000E-06  1.20000E-07  0.00000E+00  9.00000E+01
  8.88000E+00  8.80000E-07  1.10000E-07  0.00000E+00  9.00000E+01
  1.08400E+01  3.60000E-07  7.00000E-08  0.00000E+00  9.00000E+01
  1.35000E+01  2.50000E-07  5.00000E-08  0.00000E+00  9.00000E+01
  1.46000E+00  1.37200E-05  3.90000E-07  0.00000E+00  1.47000E+02
  2.44000E+00  1.04400E-05  4.00000E-07  0.00000E+00  1.47000E+02
  3.44000E+00  6.24000E-06  3.40000E-07  0.00000E+00  1.47000E+02
  4.80000E+00  3.58000E-06  2.00000E-07  0.00000E+00  1.47000E+02
  6.83000E+00  9.30000E-07  1.20000E-07  0.00000E+00  1.47000E+02
  9.00000E+00  2.70000E-07  8.00000E-08  0.00000E+00  1.47000E+02
  1.04500E+01  1.60000E-07  7.00000E-08  0.00000E+00  1.47000E+02
  1.39100E+01  1.30000E-07  5.00000E-08  0.00000E+00  1.47000E+02
  1.44000E+00  1.39800E-05  4.80000E-07  0.00000E+00  1.62000E+02
  2.45000E+00  1.01000E-05  4.70000E-07  0.00000E+00  1.62000E+02
  3.45000E+00  7.41000E-06  4.50000E-07  0.00000E+00  1.62000E+02
  4.79000E+00  3.94000E-06  2.70000E-07  0.00000E+00  1.62000E+02
  6.97000E+00  8.80000E-07  1.40000E-07  0.00000E+00  1.62000E+02
  8.81000E+00  7.50000E-07  1.50000E-07  0.00000E+00  1.62000E+02
  1.09600E+01  4.40000E-07  1.30000E-07  0.00000E+00  1.62000E+02
  1.42200E+01  8.00000E-08  4.00000E-08  0.00000E+00  1.62000E+02
# Full reference:
#S.T.Ahrens, W.G.Simon, H.B.Eldridge
#Jour. Physical Review, Part C, Nuclear Physics Vol.2, p.1433, 1970
#Neutron Emission from the Zn-64 Compound Nucleus Formed in Two Ways-P+Cu-63 and Alpha+Ni-60.
