# Target Z    :  13
# Target A    :  27
# Target state:  
# Projectile  : p
# Reaction    : (p,x)
# Final Z     :   4
# Final A     :   7
# Final state : *
# Quantity    : Cross section
# Frame       : L
# MF          :    3
# MT          :  998
# X4 ID       : O0276009 
# X4 code     : 13-AL-27(P,X)4-BE-7,,SIG
# Author      : Michel                   
# Year        : 1997
# Data points :    162
#    E(MeV)       xs(mb)      dxs(mb)     dE(MeV)      Evaluation  C/E(F)      Chi-2     Delta(mb)
  2.39000E+01  4.48000E-03  1.83000E-03  8.45000E-01
  2.66000E+01  1.40000E-02  3.81000E-03  7.93000E-01
  2.91000E+01  3.87000E-02  5.60000E-03  7.63000E-01
  2.96000E+01  1.68000E-02  8.53000E-03  5.71000E-01
  3.14000E+01  7.35000E-02  1.05000E-02  7.52000E-01
  3.32000E+01  7.92000E-02  3.28000E-02  7.17000E-01
  3.36000E+01  8.08000E-02  7.66000E-03  9.36000E-01
  3.39000E+01  8.10000E-02  1.66000E-02  5.05000E-01
  3.57000E+01  1.63000E-01  3.49000E-02  6.90000E-01
  3.64000E+01  1.30000E-01  1.03000E-02  9.22000E-01
  3.78000E+01  1.63000E-01  1.70000E-02  8.98000E-01
  3.79000E+01  1.45000E-01  2.34000E-02  4.41000E-01
  3.84000E+01  1.61000E-01  1.37000E-02  8.96000E-01
  3.85000E+01  1.44000E-01  2.24000E-02  1.26000E+00
  3.86000E+01  1.64000E-01  1.41000E-02  9.21000E-01
  3.90000E+01  2.20000E-01  4.35000E-02  9.27000E-01
  3.94000E+01  1.48000E-01  1.14000E-02  8.94000E-01
  3.97000E+01  2.09000E-01  2.55000E-02  6.45000E-01
  4.07000E+01  1.87000E-01  2.63000E-02  8.92000E-01
  4.15000E+01  1.80000E-01  3.30000E-02  4.00000E-01
  4.15000E+01  1.86000E-01  2.56000E-02  3.67000E-01
  4.15000E+01  2.11000E-01  2.89000E-02  6.12000E-01
  4.33000E+01  2.72000E-01  4.99000E-02  5.86000E-01
  4.36000E+01  2.90000E-01  2.20000E-02  9.00000E-01
  4.36000E+01  3.03000E-01  1.60000E-02  8.64000E-01
  4.37000E+01  2.30000E-01  6.07000E-02  5.72000E-01
  4.40000E+01  2.75000E-01  6.62000E-02  5.68000E-01
  4.46000E+01  3.18000E-01  5.58000E-02  8.57000E-01
  4.49000E+01  2.50000E-01  4.00000E-02  3.00000E-01
  4.49000E+01  2.65000E-01  3.49000E-02  2.64000E-01
  4.63000E+01  3.06000E-01  2.52000E-02  8.43000E-01
  4.79000E+01  3.30000E-01  5.40000E-02  8.00000E-01
  4.79000E+01  3.44000E-01  5.01000E-02  8.05000E-01
  4.80000E+01  3.37000E-01  2.92000E-02  8.28000E-01
  4.96000E+01  3.63000E-01  4.05000E-02  8.13000E-01
  5.12000E+01  4.14000E-01  4.10000E-02  7.97000E-01
  5.18000E+01  4.00000E-01  2.40000E-02  8.00000E-01
  5.18000E+01  4.21000E-01  2.22000E-02  7.52000E-01
  5.27000E+01  4.09000E-01  4.47000E-02  7.83000E-01
  5.31000E+01  4.19000E-01  4.83000E-02  1.16000E+00
  5.32000E+01  4.31000E-01  2.76000E-02  7.67000E-01
  5.42000E+01  4.24000E-01  4.56000E-02  7.69000E-01
  5.47000E+01  4.53000E-01  2.68000E-02  7.52000E-01
  5.53000E+01  4.40000E-01  5.40000E-02  7.00000E-01
  5.53000E+01  4.40000E-01  2.55000E-02  7.52000E-01
  5.53000E+01  4.71000E-01  4.98000E-02  6.99000E-01
  5.57000E+01  4.62000E-01  3.00000E-02  7.53000E-01
  5.57000E+01  4.75000E-01  2.58000E-02  7.52000E-01
  5.62000E+01  4.67000E-01  4.06000E-02  1.15000E+00
  5.67000E+01  4.75000E-01  4.41000E-02  1.15000E+00
  5.72000E+01  4.87000E-01  4.70000E-02  7.38000E-01
  5.81000E+01  4.81000E-01  2.78000E-02  7.21000E-01
  5.83000E+01  5.12000E-01  2.72000E-02  7.34000E-01
  5.87000E+01  5.10000E-01  3.00000E-02  6.00000E-01
  5.87000E+01  5.39000E-01  2.74000E-02  6.49000E-01
  6.02000E+01  5.36000E-01  4.56000E-02  7.05000E-01
  6.16000E+01  5.32000E-01  4.90000E-02  6.89000E-01
  6.19000E+01  5.90000E-01  5.40000E-02  6.00000E-01
  6.19000E+01  6.05000E-01  5.04000E-02  5.93000E-01
  6.29000E+01  5.66000E-01  4.34000E-02  6.74000E-01
  6.43000E+01  6.17000E-01  4.76000E-02  6.58000E-01
  6.49000E+01  5.80000E-01  3.70000E-02  5.00000E-01
  6.49000E+01  6.14000E-01  3.26000E-02  5.32000E-01
  6.56000E+01  6.35000E-01  3.41000E-02  6.40000E-01
  6.69000E+01  6.49000E-01  3.36000E-02  6.22000E-01
  6.79000E+01  6.40000E-01  5.80000E-02  5.00000E-01
  6.79000E+01  6.68000E-01  5.40000E-02  4.60000E-01
  6.82000E+01  6.68000E-01  3.45000E-02  6.03000E-01
  6.82000E+01  6.54000E-01  3.68000E-02  5.98000E-01
  6.83000E+01  6.52000E-01  3.87000E-02  5.98000E-01
  6.94000E+01  6.94000E-01  3.61000E-02  5.83000E-01
  7.08000E+01  6.80000E-01  4.40000E-02  4.00000E-01
  7.08000E+01  6.76000E-01  3.55000E-02  5.55000E-01
  7.08000E+01  7.18000E-01  3.81000E-02  5.56000E-01
  7.08000E+01  7.13000E-01  3.74000E-02  5.56000E-01
  7.08000E+01  7.17000E-01  3.66000E-02  3.59000E-01
  7.08000E+01  6.84000E-01  5.56000E-02  1.03000E+00
  7.08000E+01  6.43000E-01  5.35000E-02  1.03000E+00
  7.08000E+01  6.45000E-01  5.68000E-02  1.03000E+00
  7.08000E+01  6.47000E-01  4.99000E-02  1.03000E+00
  7.09000E+01  7.02000E-01  3.77000E-02  5.55000E-01
  1.17000E+02  1.11000E+00  1.30000E-01  1.40000E+00  1.14115E-02  1.0281E-02   71.41       1.099              
  1.17000E+02  1.08000E+00  1.07000E-01  1.40000E+00  1.14115E-02  1.0566E-02   99.74       1.069              
  1.28000E+02  1.22000E+00  1.30000E-01  1.30000E+00  2.37278E-02  1.9449E-02   84.68       1.196              
  1.28000E+02  1.16000E+00  1.06000E-01  1.32000E+00  2.37278E-02  2.0455E-02   114.9       1.136              
  1.39000E+02  1.23000E+00  1.20000E-01  1.20000E+00  4.43497E-02  3.6057E-02   97.62       1.186              
  1.39000E+02  1.23000E+00  1.01000E-01  1.24000E+00  4.43497E-02  3.6057E-02   137.8       1.186              
  1.51000E+02  1.31000E+00  1.20000E-01  1.10000E+00  7.98290E-02  6.0938E-02   105.1       1.230              
  1.51000E+02  1.16000E+00  1.04000E-01  1.14000E+00  7.98290E-02  6.8818E-02   107.9       1.080              
  1.62000E+02  1.36000E+00  1.30000E-01  1.00000E+00  1.33076E-01  9.7850E-02   89.07       1.227              
  1.62000E+02  1.34000E+00  1.06000E-01  1.02000E+00  1.33076E-01  9.9311E-02   129.6       1.207              
  2.56000E+02  1.82000E+00  1.20000E-01  1.30000E+00  2.01167E+00   1.105       2.551      0.1917              
  2.98000E+02  2.57000E+00  4.30000E-01  6.00000E-01  3.47443E+00   1.352       4.424      0.9044              
  3.62000E+02  2.86000E+00  2.00000E-01  1.30000E+00  4.60957E+00   1.612       76.52       1.750              
  5.53000E+02  4.46000E+00  3.59000E-01  1.49000E+00  3.26580E+00  0.7322       11.07       1.194              
  5.54000E+02  4.78000E+00  3.66000E-01  1.47000E+00  3.26146E+00  0.6823       17.21       1.519              
  5.56000E+02  4.54000E+00  3.69000E-01  1.44000E+00  3.25279E+00  0.7165       12.17       1.287              
  5.57000E+02  5.01000E+00  4.08000E-01  1.42000E+00  3.24845E+00  0.6484       18.64       1.762              
  5.59000E+02  4.59000E+00  3.51000E-01  1.40000E+00  3.23977E+00  0.7058       14.80       1.350              
  5.60000E+02  4.82000E+00  3.96000E-01  1.38000E+00  3.23544E+00  0.6713       16.01       1.585              
  5.61000E+02  4.82000E+00  3.62000E-01  1.35000E+00  3.23110E+00  0.6704       19.27       1.589              
  5.62000E+02  4.71000E+00  3.46000E-01  1.35000E+00  3.22676E+00  0.6851       18.38       1.483              
  5.63000E+02  4.75000E+00  3.52000E-01  1.34000E+00  3.22242E+00  0.6784       18.83       1.528              
  5.63000E+02  4.59000E+00  3.42000E-01  1.33000E+00  3.22242E+00  0.7021       15.99       1.368              
  5.65000E+02  4.78000E+00  3.50000E-01  1.30000E+00  3.21375E+00  0.6723       20.03       1.566              
  5.67000E+02  4.59000E+00  3.43000E-01  1.26000E+00  3.20507E+00  0.6983       16.30       1.385              
  5.68000E+02  4.65000E+00  3.44000E-01  1.25000E+00  3.20074E+00  0.6883       17.75       1.449              
  5.69000E+02  4.75000E+00  3.51000E-01  1.23000E+00  3.19640E+00  0.6729       19.59       1.554              
  5.69000E+02  4.76000E+00  3.48000E-01  1.24000E+00  3.19640E+00  0.6715       20.19       1.564              
  5.71000E+02  5.00000E+00  3.81000E-01  1.21000E+00  3.18772E+00  0.6375       22.63       1.812              
  5.72000E+02  4.64000E+00  3.44000E-01  1.19000E+00  3.18339E+00  0.6861       17.93       1.457              
  5.73000E+02  4.56000E+00  3.30000E-01  1.17000E+00  3.17905E+00  0.6972       17.51       1.381              
  5.75000E+02  4.72000E+00  3.43000E-01  1.13000E+00  3.17037E+00  0.6717       20.41       1.550              
  5.75000E+02  4.74000E+00  3.46000E-01  1.13000E+00  3.17037E+00  0.6689       20.58       1.570              
  5.75000E+02  4.78000E+00  3.47000E-01  1.13000E+00  3.17037E+00  0.6633       21.52       1.610              
  5.77000E+02  4.56000E+00  3.33000E-01  1.10000E+00  3.16170E+00  0.6934       17.63       1.398              
  5.78000E+02  4.76000E+00  3.47000E-01  1.07000E+00  3.15736E+00  0.6633       21.33       1.603              
  5.80000E+02  4.78000E+00  3.49000E-01  1.04000E+00  3.14869E+00  0.6587       21.85       1.631              
  5.81000E+02  4.76000E+00  3.46000E-01  1.02000E+00  3.14435E+00  0.6606       21.80       1.616              
  5.84000E+02  4.73000E+00  3.38000E-01  9.65000E-01  3.13134E+00  0.6620       22.37       1.599              
  5.86000E+02  4.84000E+00  3.49000E-01  9.25000E-01  3.12266E+00  0.6452       24.21       1.717              
  5.87000E+02  4.74000E+00  3.42000E-01  8.87000E-01  3.11833E+00  0.6579       22.48       1.622              
  5.87000E+02  4.70000E+00  3.39000E-01  9.00000E-01  3.11833E+00  0.6635       21.77       1.582              
  5.90000E+02  4.91000E+00  3.52000E-01  8.24000E-01  3.10531E+00  0.6324       26.29       1.805              
  5.93000E+02  4.90000E+00  3.50000E-01  7.59000E-01  3.09230E+00  0.6311       26.68       1.808              
  5.96000E+02  4.99000E+00  3.54000E-01  6.50000E-01  3.07929E+00  0.6171       29.13       1.911              
  5.98000E+02  5.04000E+00  3.65000E-01  5.83000E-01  3.07061E+00  0.6092       29.11       1.969              
  5.98000E+02  5.05000E+00  3.72000E-01  5.96000E-01  3.07061E+00  0.6080       28.31       1.979              
  6.00000E+02  5.02000E+00  3.55000E-01  5.24000E-01  3.06194E+00  0.6099       30.42       1.958              
  7.58000E+02  6.03000E+00  4.67000E-01  1.46000E+00  2.84606E+00  0.4720       46.48       3.184              
  7.60000E+02  6.28000E+00  4.75000E-01  1.44000E+00  2.84368E+00  0.4528       52.34       3.436              
  7.61000E+02  6.00000E+00  4.50000E-01  1.42000E+00  2.84249E+00  0.4737       49.23       3.158              
  7.62000E+02  5.92000E+00  4.37000E-01  1.40000E+00  2.84131E+00  0.4800       49.63       3.079              
  7.63000E+02  6.11000E+00  4.53000E-01  1.38000E+00  2.84012E+00  0.4648       52.10       3.270              
  7.64000E+02  6.27000E+00  4.56000E-01  1.36000E+00  2.83893E+00  0.4528       56.61       3.431              
  7.66000E+02  6.25000E+00  4.52000E-01  1.33000E+00  2.83656E+00  0.4538       57.03       3.413              
  7.66000E+02  6.07000E+00  4.49000E-01  1.34000E+00  2.83656E+00  0.4673       51.86       3.233              
  7.68000E+02  6.14000E+00  4.45000E-01  1.30000E+00  2.83418E+00  0.4616       55.19       3.306              
  7.70000E+02  6.35000E+00  4.56000E-01  1.26000E+00  2.83181E+00  0.4460       59.53       3.518              
  7.71000E+02  6.15000E+00  4.45000E-01  1.25000E+00  2.83062E+00  0.4603       55.64       3.319              
  7.72000E+02  6.34000E+00  4.55000E-01  1.23000E+00  2.82943E+00  0.4463       59.53       3.511              
  7.72000E+02  6.18000E+00  4.71000E-01  1.24000E+00  2.82943E+00  0.4578       50.61       3.351              
  7.73000E+02  6.37000E+00  4.59000E-01  1.21000E+00  2.82825E+00  0.4440       59.54       3.542              
  7.74000E+02  6.17000E+00  4.40000E-01  1.19000E+00  2.82706E+00  0.4582       57.72       3.343              
  7.75000E+02  6.32000E+00  4.57000E-01  1.17000E+00  2.82587E+00  0.4471       58.46       3.494              
  7.77000E+02  6.33000E+00  4.69000E-01  1.13000E+00  2.82350E+00  0.4461       55.90       3.507              
  7.77000E+02  6.25000E+00  4.74000E-01  1.13000E+00  2.82350E+00  0.4518       52.26       3.427              
  7.77000E+02  6.26000E+00  4.49000E-01  1.13000E+00  2.82350E+00  0.4510       58.58       3.437              
  7.79000E+02  6.13000E+00  4.39000E-01  1.10000E+00  2.82112E+00  0.4602       56.81       3.309              
  7.80000E+02  6.23000E+00  4.50000E-01  1.07000E+00  2.81994E+00  0.4526       57.42       3.410              
  7.82000E+02  6.32000E+00  4.55000E-01  1.02000E+00  2.81756E+00  0.4458       59.25       3.502              
  7.82000E+02  6.43000E+00  4.62000E-01  1.04000E+00  2.81756E+00  0.4382       61.14       3.612              
  7.85000E+02  6.26000E+00  4.49000E-01  9.63000E-01  2.81400E+00  0.4495       58.90       3.446              
  7.87000E+02  6.42000E+00  4.61000E-01  9.24000E-01  2.81163E+00  0.4379       61.27       3.608              
  7.88000E+02  6.28000E+00  4.50000E-01  8.84000E-01  2.81044E+00  0.4475       59.45       3.470              
  7.88000E+02  6.31000E+00  4.53000E-01  8.97000E-01  2.81044E+00  0.4454       59.68       3.500              
  7.91000E+02  6.43000E+00  4.61000E-01  8.22000E-01  2.80688E+00  0.4365       61.77       3.623              
  7.93000E+02  6.42000E+00  4.59000E-01  7.58000E-01  2.80450E+00  0.4368       62.05       3.615              
  7.96000E+02  6.29000E+00  4.51000E-01  6.49000E-01  2.80094E+00  0.4453       59.85       3.489              
  7.98000E+02  6.33000E+00  4.57000E-01  5.82000E-01  2.79856E+00  0.4421       59.71       3.531              
  7.98000E+02  6.59000E+00  4.74000E-01  5.94000E-01  2.79856E+00  0.4247       63.98       3.791              
  8.00000E+02  6.44000E+00  4.57000E-01  5.23000E-01  2.79619E+00  0.4342       63.57       3.644              
#
# Average deviation:                                                3.851       45.98       2.268    
#
# Full reference:
#R.Michel,  R.Bodemann,  H.Busemann,  R.Daunke,  M.Gloris, H.-J.Lange,  B.Klug,  A.Krins,  I.Leya,
# M.Luepke, S.Neumann,  H.Reinhardt,  M.Schnatz-Buettgen, U.Herpers,  Th.Schiekel,  F.Sudbrock,  B.Holmqvist, H.Conde,
# P.Malmborg,  M.Suter,  B.Dittrich-Hannen, P.-W.Kubik,  H.-A.Sinal,  D.Filges
#Jour. Nucl. Instrum. Methods in Physics Res., Sect.B Vol.129, p.153, 1997
#Cross sections for the production of residual nuclides by low- and medium-energy protons from the target elements C, N, O, Mg, Al, Si, Ca, Ti, V, Mn, Fe, Co,
#Ni, Cu, Sr, Y, Zr, Nb, Ba and Au.
#
# Quality information:
#
# Quality  O0276009 : T2
# Date     O0276009 : 05-01-2018
# Reaction O0276009 : NP:  162 E-range:   23.9    -   800.     MeV 13-AL-27(P,X)4-BE-7,,SIG            pdf: y
# Paper    O0276009 : R.Michel+ Jour. Nucl. Instrum. Methods in Physics Res., Sect.B Vol.129, p.153, 1997 Cross sections for the production of residual nuclides b
# Action   O0276009 : 
# Comment  O0276009 : Evaluation        N=    81 F=   3.85     chi-2=   46.0     D=   2.27     mb T=   2.65     mb E=   2.63     K1=  3.85     K2= 1.226E+12
# Comment  O0276009 : TALYS             N=    81 F=   3.85     chi-2=   46.0     D=   2.27     mb T=   2.65     mb E=   2.63     K1=  3.85     K2= 1.226E+12
# Comment  O0276009 : cendl3.1          N=     0 F=   0.00     chi-2=   0.00     D=   0.00     mb T=   0.00     mb E=   2.63     K1=  0.00     K2=  0.00
# Comment  O0276009 : eaf.2010          N=     0 F=   0.00     chi-2=   0.00     D=   0.00     mb T=   0.00     mb E=   2.63     K1=  0.00     K2=  0.00
# Comment  O0276009 : endfb8.0          N=     0 F=   0.00     chi-2=   0.00     D=   0.00     mb T=   0.00     mb E=   2.63     K1=  0.00     K2=  0.00
# Comment  O0276009 : irdff1.0          N=     0 F=   0.00     chi-2=   0.00     D=   0.00     mb T=   0.00     mb E=   2.63     K1=  0.00     K2=  0.00
# Comment  O0276009 : jeff3.3           N=     0 F=   0.00     chi-2=   0.00     D=   0.00     mb T=   0.00     mb E=   2.63     K1=  0.00     K2=  0.00
# Comment  O0276009 : jendl4.0          N=     0 F=   0.00     chi-2=   0.00     D=   0.00     mb T=   0.00     mb E=   2.63     K1=  0.00     K2=  0.00
# Comment  O0276009 : tendl.2017        N=     0 F=   0.00     chi-2=   0.00     D=   0.00     mb T=   0.00     mb E=   2.63     K1=  0.00     K2=  0.00
