# Target Z    :  13
# Target A    :  27
# Target state:  
# Projectile  : p
# Reaction    : (p,xa)
# E-inc       :   72.300 MeV
# Quantity    : Differential cross section
# Frame       : L
# MF          :    5
# MT          :  207
# X4 ID       : O0754008 
# X4 code     : 13-AL-27(P,X)2-HE-4,,DE
# Author      : Lewandowski              
# Year        : 1980
# Data points :     52
# E-out(MeV)  xs(mb/MeV)  dxs(mb/MeV)     dE(MeV)      Evaluation  C/E(F)      Chi-2     Delta(mb)
  1.03200E+01  3.73000E-06  7.83300E-08  0.00000E+00
  1.14000E+01  2.86000E-06  6.00600E-08  0.00000E+00
  1.22700E+01  4.48000E-06  9.40800E-08  0.00000E+00
  1.29600E+01  3.28000E-06  6.88800E-08  0.00000E+00
  1.45800E+01  3.10000E-06  6.51000E-08  0.00000E+00
  1.48500E+01  2.48000E-06  5.20800E-08  0.00000E+00
  1.66700E+01  2.35000E-06  4.93500E-08  0.00000E+00
  1.73100E+01  2.09000E-06  4.38900E-08  0.00000E+00
  1.85500E+01  1.83000E-06  3.84300E-08  0.00000E+00
  1.96000E+01  1.58000E-06  3.31800E-08  0.00000E+00
  2.06400E+01  1.36300E-06  2.86200E-08  0.00000E+00
  2.12900E+01  1.17600E-06  2.46900E-08  0.00000E+00
  2.25300E+01  1.03200E-06  2.16700E-08  0.00000E+00
  2.35700E+01  9.18000E-07  1.92700E-08  0.00000E+00
  2.44100E+01  8.04000E-07  1.68800E-08  0.00000E+00
  2.56400E+01  7.37000E-07  1.54700E-08  0.00000E+00
  2.68900E+01  6.37000E-07  1.33700E-08  0.00000E+00
  2.81100E+01  5.92000E-07  1.24300E-08  0.00000E+00
  2.89500E+01  5.27000E-07  1.10600E-08  0.00000E+00
  2.95900E+01  4.68000E-07  9.82800E-09  0.00000E+00
  3.06100E+01  4.36000E-07  9.15600E-09  0.00000E+00
  3.18400E+01  3.99000E-07  8.37900E-09  0.00000E+00
  3.28700E+01  3.61000E-07  7.58100E-09  0.00000E+00
  3.41000E+01  3.36000E-07  7.05600E-09  0.00000E+00
  3.47400E+01  2.90000E-07  6.09000E-09  0.00000E+00
  3.57600E+01  2.77000E-07  5.81700E-09  0.00000E+00
  3.69900E+01  2.51000E-07  5.27100E-09  0.00000E+00
  3.78100E+01  2.36000E-07  4.95600E-09  0.00000E+00
  3.92400E+01  2.20000E-07  4.62000E-09  0.00000E+00
  4.00600E+01  2.05000E-07  4.30500E-09  0.00000E+00
  4.08900E+01  1.88000E-07  3.94800E-09  0.00000E+00
  4.21100E+01  1.74000E-07  3.65400E-09  0.00000E+00
  4.29400E+01  1.62000E-07  3.40200E-09  0.00000E+00
  4.41700E+01  1.47000E-07  3.08700E-09  0.00000E+00
  4.55700E+01  1.47000E-07  3.08700E-09  0.00000E+00
  4.76000E+01  1.36900E-07  2.87400E-09  0.00000E+00
  4.78400E+01  1.19800E-07  2.51500E-09  0.00000E+00
  4.90400E+01  1.21900E-07  2.55900E-09  0.00000E+00
  4.96700E+01  1.10000E-07  2.31000E-09  0.00000E+00
  5.12700E+01  1.10300E-07  2.31600E-09  0.00000E+00
  5.26700E+01  1.10600E-07  2.32200E-09  0.00000E+00
  5.38900E+01  1.04500E-07  2.19400E-09  0.00000E+00
  5.49200E+01  9.57000E-08  2.00900E-09  0.00000E+00
  5.59500E+01  8.64000E-08  1.81400E-09  0.00000E+00
  5.66200E+01  7.03000E-08  1.47600E-09  0.00000E+00
  5.78500E+01  6.44000E-08  1.35200E-09  0.00000E+00
  5.87900E+01  4.01000E-08  8.42100E-10  0.00000E+00
  6.00600E+01  6.19000E-08  1.29900E-09  0.00000E+00
  6.07600E+01  4.47000E-08  9.38700E-10  0.00000E+00
  6.20900E+01  3.00000E-08  6.30000E-10  0.00000E+00
  6.30200E+01  1.92000E-08  4.03200E-10  0.00000E+00
  6.40600E+01  1.71000E-08  3.59100E-10  0.00000E+00
# Full reference:
#Z.Lewandowski,  E.Loeffler,  R.Wagner,  H.H.Mueller, W.Reichart,  P.Schober,  E.Gadioli,  E.Gadioli Erba
#
#Jour. Lettere al Nuovo Cimento Vol.28, p.15, 1980
#Proton-Induced Alpha- And Tritium-Emission at 72 MeV.
